# Averages over distance (i) for each depth (k):
# Depth(m) Speed(m/s) Density(kg/m^3) Salt PSU Theta(degC)
0.00 1538.9054 1022.9899 35.2810 26.8158
10.00 1539.0439 1023.0377 35.2812 26.8015
20.00 1539.1783 1023.0874 35.2827 26.7847
30.00 1539.2867 1023.1459 35.2898 26.7536
40.00 1539.3144 1023.2266 35.3089 26.6809
50.00 1539.2166 1023.3357 35.3400 26.5472
60.00 1538.9868 1023.4699 35.3790 26.3523
70.00 1538.5991 1023.6316 35.4251 26.0866
80.00 1537.9536 1023.8330 35.4785 25.7091
90.00 1536.8485 1024.0968 35.5377 25.1395
100.00 1535.0602 1024.4365 35.5932 24.3003
110.00 1532.5769 1024.8268 35.6269 23.2143
120.00 1529.6376 1025.2140 35.6215 22.0033
130.00 1526.4270 1025.5665 35.5712 20.7520
140.00 1522.9673 1025.8876 35.4822 19.4659
150.00 1519.1174 1026.1791 35.3593 18.1203
160.00 1515.4192 1026.4405 35.2419 16.8631
170.00 1511.8435 1026.6778 35.1290 15.6775
180.00 1509.1215 1026.8591 35.0490 14.7918
190.00 1506.6692 1027.0228 34.9794 14.0006
200.00 1504.8467 1027.1570 34.9311 13.4066
210.00 1503.5907 1027.2646 34.9020 12.9899
220.00 1502.3346 1027.3723 34.8729 12.5731
230.00 1501.5641 1027.4598 34.8578 12.3010
240.00 1500.9740 1027.5399 34.8479 12.0826
250.00 1500.3839 1027.6199 34.8380 11.8642
260.00 1499.8354 1027.6976 34.8286 11.6587
270.00 1499.4093 1027.7683 34.8206 11.4908
280.00 1498.9833 1027.8390 34.8126 11.3230
290.00 1498.5573 1027.9096 34.8046 11.1552
300.00 1498.1314 1027.9803 34.7966 10.9875
310.00 1497.7182 1028.0476 34.7874 10.8271
320.00 1497.3050 1028.1150 34.7782 10.6667
330.00 1496.8918 1028.1823 34.7690 10.5062
340.00 1496.4786 1028.2497 34.7598 10.3458
350.00 1496.0654 1028.3170 34.7506 10.1854
360.00 1495.6714 1028.3820 34.7416 10.0335
370.00 1495.2787 1028.4469 34.7327 9.8822
380.00 1494.8861 1028.5117 34.7237 9.7309
390.00 1494.4935 1028.5766 34.7148 9.5796
400.00 1494.1008 1028.6414 34.7058 9.4283
410.00 1493.7085 1028.7063 34.6969 9.2772
420.00 1493.3611 1028.7686 34.6893 9.1411
430.00 1493.0137 1028.8309 34.6818 9.0050
440.00 1492.6663 1028.8932 34.6742 8.8690
450.00 1492.3189 1028.9555 34.6667 8.7329
460.00 1491.9715 1029.0178 34.6591 8.5968
470.00 1491.6241 1029.0801 34.6516 8.4608
480.00 1491.2926 1029.1418 34.6445 8.3295
490.00 1491.0080 1029.2016 34.6388 8.2124
500.00 1490.7234 1029.2614 34.6331 8.0954
510.00 1490.4389 1029.3212 34.6274 7.9783
520.00 1490.1543 1029.3809 34.6217 7.8613
530.00 1489.8697 1029.4407 34.6160 7.7442
540.00 1489.5852 1029.5005 34.6103 7.6271
550.00 1489.3006 1029.5603 34.6046 7.5101
560.00 1489.0654 1029.6184 34.6002 7.4071
570.00 1488.8485 1029.6760 34.5963 7.3093
580.00 1488.6316 1029.7335 34.5924 7.2116
590.00 1488.4147 1029.7911 34.5884 7.1138
600.00 1488.1978 1029.8486 34.5845 7.0160
610.00 1487.9809 1029.9062 34.5806 6.9183
620.00 1487.7641 1029.9637 34.5767 6.8205
630.00 1487.5472 1030.0213 34.5728 6.7228
640.00 1487.3636 1030.0779 34.5697 6.6341
650.00 1487.2099 1030.1336 34.5674 6.5536
660.00 1487.0562 1030.1894 34.5650 6.4731
670.00 1486.9025 1030.2452 34.5627 6.3926
680.00 1486.7489 1030.3010 34.5604 6.3121
690.00 1486.5952 1030.3567 34.5580 6.2316
700.00 1486.4415 1030.4125 34.5557 6.1511
710.00 1486.2878 1030.4683 34.5533 6.0706
720.00 1486.1342 1030.5240 34.5510 5.9901
730.00 1486.0212 1030.5788 34.5496 5.9204
740.00 1485.9211 1030.6332 34.5485 5.8541
750.00 1485.8210 1030.6877 34.5475 5.7878
760.00 1485.7210 1030.7421 34.5464 5.7215
770.00 1485.6209 1030.7965 34.5453 5.6552
780.00 1485.5208 1030.8510 34.5442 5.5889
790.00 1485.4207 1030.9054 34.5431 5.5226
800.00 1485.3206 1030.9598 34.5421 5.4563
810.00 1485.2205 1031.0143 34.5410 5.3900
820.00 1485.1443 1031.0682 34.5404 5.3299
830.00 1485.0873 1031.1216 34.5403 5.2747
840.00 1485.0303 1031.1750 34.5401 5.2196
850.00 1484.9733 1031.2285 34.5400 5.1644
860.00 1484.9164 1031.2819 34.5398 5.1092
870.00 1484.8594 1031.3354 34.5397 5.0541
880.00 1484.8024 1031.3888 34.5395 4.9989
890.00 1484.7454 1031.4422 34.5393 4.9438
900.00 1484.6884 1031.4957 34.5392 4.8886
910.00 1484.6324 1031.5491 34.5391 4.8337
920.00 1484.6093 1031.6017 34.5395 4.7871
930.00 1484.5863 1031.6544 34.5400 4.7406
940.00 1484.5633 1031.7070 34.5405 4.6941
950.00 1484.5402 1031.7596 34.5409 4.6475
960.00 1484.5172 1031.8123 34.5414 4.6010
970.00 1484.4942 1031.8649 34.5419 4.5544
980.00 1484.4711 1031.9176 34.5423 4.5079
990.00 1484.4481 1031.9702 34.5428 4.4614
1000.00 1484.4251 1032.0228 34.5433 4.4148
1010.00 1484.4096 1032.0753 34.5439 4.3702
1020.00 1484.4134 1032.1273 34.5447 4.3304
1030.00 1484.4171 1032.1792 34.5455 4.2905
1040.00 1484.4208 1032.2312 34.5464 4.2507
1050.00 1484.4246 1032.2832 34.5472 4.2109
1060.00 1484.4283 1032.3351 34.5481 4.1710
1070.00 1484.4320 1032.3871 34.5489 4.1312
1080.00 1484.4357 1032.4391 34.5498 4.0914
1090.00 1484.4395 1032.4911 34.5506 4.0515
1100.00 1484.4432 1032.5430 34.5515 4.0117
1110.00 1484.4558 1032.5948 34.5524 3.9741
1120.00 1484.4810 1032.6461 34.5534 3.9395
1130.00 1484.5063 1032.6975 34.5545 3.9050
1140.00 1484.5316 1032.7489 34.5556 3.8705
1150.00 1484.5569 1032.8003 34.5566 3.8360
1160.00 1484.5822 1032.8517 34.5577 3.8015
1170.00 1484.6075 1032.9031 34.5587 3.7670
1180.00 1484.6328 1032.9545 34.5598 3.7325
1190.00 1484.6581 1033.0059 34.5608 3.6980
1200.00 1484.6834 1033.0572 34.5619 3.6635
1210.00 1484.7167 1033.1084 34.5630 3.6310
1220.00 1484.7599 1033.1593 34.5641 3.6009
1230.00 1484.8032 1033.2101 34.5653 3.5707
1240.00 1484.8465 1033.2610 34.5664 3.5406
1250.00 1484.8897 1033.3118 34.5676 3.5105
1260.00 1484.9330 1033.3627 34.5687 3.4804
1270.00 1484.9763 1033.4136 34.5699 3.4503
1280.00 1485.0195 1033.4644 34.5711 3.4202
1290.00 1485.0628 1033.5153 34.5722 3.3900
1300.00 1485.1060 1033.5662 34.5734 3.3599
1310.00 1485.1552 1033.6168 34.5745 3.3312
1320.00 1485.2139 1033.6672 34.5757 3.3048
1330.00 1485.2727 1033.7176 34.5769 3.2784
1340.00 1485.3314 1033.7680 34.5781 3.2520
1350.00 1485.3901 1033.8184 34.5793 3.2256
1360.00 1485.4489 1033.8688 34.5805 3.1992
1370.00 1485.5076 1033.9192 34.5817 3.1728
1380.00 1485.5663 1033.9695 34.5829 3.1464
1390.00 1485.6251 1034.0199 34.5841 3.1201
1400.00 1485.6838 1034.0703 34.5853 3.0937
1410.00 1485.7438 1034.1206 34.5865 3.0675
1420.00 1485.8167 1034.1706 34.5876 3.0445
1430.00 1485.8897 1034.2205 34.5888 3.0215
1440.00 1485.9627 1034.2704 34.5900 2.9985
1450.00 1486.0356 1034.3203 34.5912 2.9755
1460.00 1486.1086 1034.3702 34.5923 2.9525
1470.00 1486.1815 1034.4201 34.5935 2.9294
1480.00 1486.2545 1034.4700 34.5947 2.9064
1490.00 1486.3275 1034.5199 34.5959 2.8834
1500.00 1486.4004 1034.5698 34.5970 2.8604
1510.00 1486.4734 1034.6197 34.5982 2.8374
1520.00 1486.5505 1034.6695 34.5994 2.8153
1530.00 1486.6376 1034.7189 34.6005 2.7956
1540.00 1486.7246 1034.7683 34.6016 2.7759
1550.00 1486.8117 1034.8176 34.6027 2.7562
1560.00 1486.8988 1034.8670 34.6038 2.7364
1570.00 1486.9859 1034.9164 34.6049 2.7167
1580.00 1487.0730 1034.9658 34.6060 2.6970
1590.00 1487.1601 1035.0152 34.6071 2.6773
1600.00 1487.2472 1035.0645 34.6082 2.6576
1610.00 1487.3342 1035.1139 34.6093 2.6379
1620.00 1487.4213 1035.1633 34.6104 2.6182
1630.00 1487.5084 1035.2127 34.6114 2.5985
1640.00 1487.6038 1035.2618 34.6125 2.5807
1650.00 1487.7052 1035.3106 34.6134 2.5642
1660.00 1487.8065 1035.3594 34.6144 2.5478
1670.00 1487.9079 1035.4082 34.6154 2.5314
1680.00 1488.0092 1035.4571 34.6164 2.5150
1690.00 1488.1106 1035.5059 34.6173 2.4985
1700.00 1488.2119 1035.5547 34.6183 2.4821
1710.00 1488.3133 1035.6035 34.6193 2.4657
1720.00 1488.4146 1035.6524 34.6202 2.4493
1730.00 1488.5160 1035.7012 34.6212 2.4329
1740.00 1488.6173 1035.7500 34.6222 2.4164
1750.00 1488.7187 1035.7989 34.6232 2.4000
1760.00 1488.8200 1035.8477 34.6241 2.3836
1770.00 1488.9280 1035.8962 34.6250 2.3687
1780.00 1489.0431 1035.9445 34.6258 2.3554
1790.00 1489.1581 1035.9927 34.6266 2.3420
1800.00 1489.2731 1036.0410 34.6275 2.3287
1810.00 1489.3882 1036.0893 34.6283 2.3154
1820.00 1489.5032 1036.1375 34.6291 2.3021
1830.00 1489.6183 1036.1858 34.6299 2.2888
1840.00 1489.7333 1036.2340 34.6307 2.2755
1850.00 1489.8484 1036.2823 34.6315 2.2621
1860.00 1489.9634 1036.3305 34.6323 2.2488
1870.00 1490.0784 1036.3788 34.6331 2.2355
1880.00 1490.1935 1036.4270 34.6340 2.2222
1890.00 1490.3085 1036.4753 34.6348 2.2089
1900.00 1490.4236 1036.5235 34.6356 2.1956
1910.00 1490.5386 1036.5718 34.6364 2.1822
1920.00 1490.6609 1036.6197 34.6371 2.1705
1930.00 1490.7883 1036.6674 34.6378 2.1600
1940.00 1490.9157 1036.7152 34.6384 2.1494
1950.00 1491.0431 1036.7629 34.6391 2.1388
1960.00 1491.1705 1036.8106 34.6397 2.1283
1970.00 1491.2979 1036.8583 34.6404 2.1177
1980.00 1491.4253 1036.9060 34.6410 2.1071
1990.00 1491.5526 1036.9537 34.6417 2.0965
2000.00 1491.6800 1037.0014 34.6423 2.0860
2010.00 1491.8074 1037.0491 34.6430 2.0754
2020.00 1491.9348 1037.0968 34.6436 2.0648
2030.00 1492.0622 1037.1446 34.6443 2.0543
2040.00 1492.1896 1037.1923 34.6449 2.0437
2050.00 1492.3170 1037.2400 34.6456 2.0331
2060.00 1492.4444 1037.2877 34.6462 2.0226
2070.00 1492.5718 1037.3354 34.6469 2.0120
2080.00 1492.6992 1037.3831 34.6475 2.0014
2090.00 1492.8328 1037.4305 34.6481 1.9922
2100.00 1492.9707 1037.4777 34.6486 1.9839
2110.00 1493.1085 1037.5250 34.6491 1.9756
2120.00 1493.2463 1037.5722 34.6496 1.9672
2130.00 1493.3842 1037.6194 34.6501 1.9589
2140.00 1493.5220 1037.6666 34.6506 1.9506
2150.00 1493.6598 1037.7138 34.6511 1.9423
2160.00 1493.7977 1037.7610 34.6516 1.9340
2170.00 1493.9355 1037.8083 34.6521 1.9257
2180.00 1494.0733 1037.8555 34.6526 1.9174
2190.00 1494.2112 1037.9027 34.6531 1.9091
2200.00 1494.3490 1037.9499 34.6536 1.9007
2210.00 1494.4868 1037.9971 34.6541 1.8924
2220.00 1494.6247 1038.0443 34.6546 1.8841
2230.00 1494.7625 1038.0916 34.6552 1.8758
2240.00 1494.9004 1038.1388 34.6557 1.8675
2250.00 1495.0382 1038.1860 34.6562 1.8592
2260.00 1495.1760 1038.2332 34.6567 1.8509
2270.00 1495.3139 1038.2804 34.6572 1.8426
2280.00 1495.4548 1038.3275 34.6576 1.8349
2290.00 1495.6008 1038.3743 34.6580 1.8283
2300.00 1495.7468 1038.4211 34.6584 1.8217
2310.00 1495.8928 1038.4679 34.6588 1.8150
2320.00 1496.0388 1038.5147 34.6592 1.8084
2330.00 1496.1849 1038.5614 34.6596 1.8018
2340.00 1496.3309 1038.6082 34.6600 1.7952
2350.00 1496.4769 1038.6550 34.6604 1.7886
2360.00 1496.6229 1038.7018 34.6607 1.7820
2370.00 1496.7689 1038.7486 34.6611 1.7754
2380.00 1496.9149 1038.7954 34.6615 1.7687
2390.00 1497.0610 1038.8422 34.6619 1.7621
2400.00 1497.2070 1038.8890 34.6623 1.7555
2410.00 1497.3530 1038.9358 34.6627 1.7489
2420.00 1497.4990 1038.9826 34.6631 1.7423
2430.00 1497.6450 1039.0294 34.6635 1.7357
2440.00 1497.7910 1039.0762 34.6638 1.7290
2450.00 1497.9370 1039.1229 34.6642 1.7224
2460.00 1498.0831 1039.1697 34.6646 1.7158
2470.00 1498.2291 1039.2165 34.6650 1.7092
2480.00 1498.3751 1039.2633 34.6654 1.7026
2490.00 1498.5211 1039.3101 34.6658 1.6960
2500.00 1498.6722 1039.3566 34.6661 1.6903
2510.00 1498.8240 1039.4031 34.6664 1.6848
2520.00 1498.9758 1039.4495 34.6667 1.6793
2530.00 1499.1276 1039.4959 34.6670 1.6738
2540.00 1499.2794 1039.5424 34.6673 1.6683
2550.00 1499.4312 1039.5888 34.6676 1.6629
2560.00 1499.5830 1039.6353 34.6679 1.6574
2570.00 1499.7348 1039.6817 34.6682 1.6519
2580.00 1499.8866 1039.7282 34.6685 1.6464
2590.00 1500.0384 1039.7746 34.6688 1.6409
2600.00 1500.1902 1039.8211 34.6691 1.6354
2610.00 1500.3420 1039.8675 34.6694 1.6299
2620.00 1500.4938 1039.9140 34.6697 1.6244
2630.00 1500.6457 1039.9604 34.6700 1.6189
2640.00 1500.7975 1040.0068 34.6703 1.6134
2650.00 1500.9493 1040.0533 34.6706 1.6079
2660.00 1501.1011 1040.0997 34.6710 1.6024
2670.00 1501.2529 1040.1462 34.6713 1.5969
2680.00 1501.4047 1040.1926 34.6716 1.5914
2690.00 1501.5565 1040.2391 34.6719 1.5859
2700.00 1501.7083 1040.2855 34.6722 1.5804
2710.00 1501.8601 1040.3320 34.6725 1.5749
2720.00 1502.0119 1040.3784 34.6728 1.5694
2730.00 1502.1640 1040.4248 34.6731 1.5640
2740.00 1502.3196 1040.4710 34.6733 1.5591
2750.00 1502.4753 1040.5172 34.6736 1.5543
2760.00 1502.6309 1040.5633 34.6738 1.5494
2770.00 1502.7865 1040.6095 34.6741 1.5445
2780.00 1502.9422 1040.6557 34.6743 1.5397
2790.00 1503.0978 1040.7018 34.6745 1.5348
2800.00 1503.2535 1040.7480 34.6748 1.5300
2810.00 1503.4091 1040.7942 34.6750 1.5251
2820.00 1503.5647 1040.8403 34.6753 1.5203
2830.00 1503.7204 1040.8865 34.6755 1.5154
2840.00 1503.8760 1040.9327 34.6758 1.5106
2850.00 1504.0316 1040.9788 34.6760 1.5057
2860.00 1504.1873 1041.0250 34.6763 1.5009
2870.00 1504.3429 1041.0712 34.6765 1.4960
2880.00 1504.4985 1041.1173 34.6768 1.4912
2890.00 1504.6542 1041.1635 34.6770 1.4863
2900.00 1504.8098 1041.2097 34.6773 1.4814
2910.00 1504.9654 1041.2558 34.6775 1.4766
2920.00 1505.1211 1041.3020 34.6777 1.4717
2930.00 1505.2767 1041.3482 34.6780 1.4669
2940.00 1505.4324 1041.3943 34.6782 1.4620
2950.00 1505.5880 1041.4405 34.6785 1.4572
2960.00 1505.7436 1041.4867 34.6787 1.4523
2970.00 1505.8993 1041.5328 34.6790 1.4475
2980.00 1506.0549 1041.5790 34.6792 1.4426
2990.00 1506.2105 1041.6252 34.6795 1.4378
3000.00 1506.3694 1041.6711 34.6797 1.4334
3010.00 1506.5283 1041.7170 34.6799 1.4290
3020.00 1506.6872 1041.7629 34.6801 1.4247
3030.00 1506.8462 1041.8088 34.6803 1.4203
3040.00 1507.0051 1041.8547 34.6805 1.4160
3050.00 1507.1640 1041.9006 34.6807 1.4116
3060.00 1507.3230 1041.9465 34.6809 1.4072
3070.00 1507.4819 1041.9924 34.6811 1.4029
3080.00 1507.6408 1042.0383 34.6813 1.3985
3090.00 1507.7998 1042.0842 34.6815 1.3942
3100.00 1507.9587 1042.1301 34.6818 1.3898
3110.00 1508.1176 1042.1760 34.6820 1.3854
3120.00 1508.2766 1042.2219 34.6822 1.3811
3130.00 1508.4355 1042.2678 34.6824 1.3767
3140.00 1508.5944 1042.3137 34.6826 1.3724
3150.00 1508.7534 1042.3596 34.6828 1.3680
3160.00 1508.9123 1042.4055 34.6830 1.3636
3170.00 1509.0712 1042.4514 34.6832 1.3593
3180.00 1509.2302 1042.4973 34.6834 1.3549
3190.00 1509.3891 1042.5432 34.6836 1.3506
3200.00 1509.5480 1042.5891 34.6838 1.3462
3210.00 1509.7069 1042.6350 34.6840 1.3418
3220.00 1509.8659 1042.6809 34.6842 1.3375
3230.00 1510.0248 1042.7268 34.6844 1.3331
3240.00 1510.1837 1042.7727 34.6847 1.3288
3250.00 1510.3427 1042.8186 34.6849 1.3244
3260.00 1510.5016 1042.8645 34.6851 1.3200
3270.00 1510.6605 1042.9104 34.6853 1.3157
3280.00 1510.8218 1042.9562 34.6855 1.3117
3290.00 1510.9847 1043.0018 34.6856 1.3079
3300.00 1511.1476 1043.0474 34.6858 1.3042
3310.00 1511.3105 1043.0930 34.6860 1.3005
3320.00 1511.4734 1043.1386 34.6861 1.2967
3330.00 1511.6363 1043.1842 34.6863 1.2930
3340.00 1511.7992 1043.2298 34.6865 1.2893
3350.00 1511.9622 1043.2754 34.6867 1.2855
3360.00 1512.1251 1043.3210 34.6868 1.2818
3370.00 1512.2880 1043.3666 34.6870 1.2781
3380.00 1512.4509 1043.4122 34.6872 1.2743
3390.00 1512.6138 1043.4578 34.6873 1.2706
3400.00 1512.7767 1043.5034 34.6875 1.2668
3410.00 1512.9396 1043.5490 34.6877 1.2631
3420.00 1513.1025 1043.5946 34.6879 1.2594
3430.00 1513.2655 1043.6402 34.6880 1.2556
3440.00 1513.4284 1043.6858 34.6882 1.2519
3450.00 1513.5913 1043.7314 34.6884 1.2482
3460.00 1513.7542 1043.7770 34.6885 1.2444
3470.00 1513.9171 1043.8226 34.6887 1.2407
3480.00 1514.0800 1043.8682 34.6889 1.2370
3490.00 1514.2429 1043.9137 34.6891 1.2332
3500.00 1514.4059 1043.9593 34.6892 1.2295
3510.00 1514.5688 1044.0049 34.6894 1.2258
3520.00 1514.7317 1044.0505 34.6896 1.2220
3530.00 1514.8946 1044.0961 34.6897 1.2183
3540.00 1515.0575 1044.1417 34.6899 1.2145
3550.00 1515.2204 1044.1873 34.6901 1.2108
3560.00 1515.3833 1044.2329 34.6903 1.2071
3570.00 1515.5463 1044.2785 34.6904 1.2033
3580.00 1515.7092 1044.3241 34.6906 1.1996
3590.00 1515.8770 1044.3694 34.6907 1.1967
3600.00 1516.0456 1044.4146 34.6909 1.1940
3610.00 1516.2142 1044.4598 34.6910 1.1912
3620.00 1516.3828 1044.5050 34.6911 1.1885
3630.00 1516.5514 1044.5502 34.6912 1.1857
3640.00 1516.7200 1044.5954 34.6914 1.1830
3650.00 1516.8886 1044.6406 34.6915 1.1802
3660.00 1517.0572 1044.6858 34.6916 1.1775
3670.00 1517.2258 1044.7310 34.6918 1.1747
3680.00 1517.3944 1044.7762 34.6919 1.1720
3690.00 1517.5630 1044.8214 34.6920 1.1692
3700.00 1517.7315 1044.8666 34.6921 1.1665
3710.00 1517.9001 1044.9118 34.6923 1.1637
3720.00 1518.0687 1044.9570 34.6924 1.1610
3730.00 1518.2373 1045.0022 34.6925 1.1582
3740.00 1518.4059 1045.0474 34.6926 1.1555
3750.00 1518.5745 1045.0926 34.6928 1.1527
3760.00 1518.7431 1045.1378 34.6929 1.1500
3770.00 1518.9117 1045.1830 34.6930 1.1472
3780.00 1519.0803 1045.2282 34.6932 1.1445
3790.00 1519.2489 1045.2734 34.6933 1.1417
3800.00 1519.4174 1045.3186 34.6934 1.1390
3810.00 1519.5860 1045.3638 34.6935 1.1362
3820.00 1519.7546 1045.4090 34.6937 1.1335
3830.00 1519.9232 1045.4542 34.6938 1.1307
3840.00 1520.0918 1045.4994 34.6939 1.1280
3850.00 1520.2604 1045.5446 34.6940 1.1252
3860.00 1520.4290 1045.5898 34.6942 1.1225
3870.00 1520.5976 1045.6350 34.6943 1.1197
3880.00 1520.7662 1045.6802 34.6944 1.1170
3890.00 1520.9348 1045.7254 34.6946 1.1142
3900.00 1521.1033 1045.7706 34.6947 1.1115
3910.00 1521.2719 1045.8158 34.6948 1.1087
3920.00 1521.4457 1045.8606 34.6949 1.1069
3930.00 1521.6202 1045.9054 34.6950 1.1051
3940.00 1521.7947 1045.9502 34.6951 1.1034
3950.00 1521.9692 1045.9949 34.6952 1.1017
3960.00 1522.1437 1046.0397 34.6953 1.1000
3970.00 1522.3182 1046.0844 34.6954 1.0982
3980.00 1522.4927 1046.1292 34.6954 1.0965
3990.00 1522.6672 1046.1740 34.6955 1.0948
4000.00 1522.8417 1046.2187 34.6956 1.0931
4010.00 1523.0162 1046.2635 34.6957 1.0913
4020.00 1523.1907 1046.3083 34.6958 1.0896
4030.00 1523.3652 1046.3530 34.6959 1.0879
4040.00 1523.5397 1046.3978 34.6960 1.0862
4050.00 1523.7142 1046.4425 34.6961 1.0844
4060.00 1523.8887 1046.4873 34.6962 1.0827
4070.00 1524.0632 1046.5321 34.6963 1.0810
4080.00 1524.2377 1046.5768 34.6964 1.0793
4090.00 1524.4122 1046.6216 34.6964 1.0775
4100.00 1524.5867 1046.6664 34.6965 1.0758
4110.00 1524.7611 1046.7111 34.6966 1.0741
4120.00 1524.9356 1046.7559 34.6967 1.0724
4130.00 1525.1101 1046.8007 34.6968 1.0706
4140.00 1525.2846 1046.8454 34.6969 1.0689
4150.00 1525.4591 1046.8902 34.6970 1.0672
4160.00 1525.6336 1046.9349 34.6971 1.0655
4170.00 1525.8081 1046.9797 34.6972 1.0637
4180.00 1525.9826 1047.0245 34.6973 1.0620
4190.00 1526.1571 1047.0692 34.6974 1.0603
4200.00 1526.3316 1047.1140 34.6974 1.0586
4210.00 1526.5061 1047.1588 34.6975 1.0568
4220.00 1526.6806 1047.2035 34.6976 1.0551
4230.00 1526.8551 1047.2483 34.6977 1.0534
4240.00 1527.0296 1047.2930 34.6978 1.0517
4250.00 1527.2041 1047.3378 34.6979 1.0499
4260.00 1527.3786 1047.3826 34.6980 1.0482
4270.00 1527.5571 1047.4270 34.6981 1.0472
4280.00 1527.7387 1047.4713 34.6981 1.0468
4290.00 1527.9202 1047.5155 34.6981 1.0463
4300.00 1528.1017 1047.5597 34.6982 1.0459
4310.00 1528.2832 1047.6039 34.6982 1.0454
4320.00 1528.4647 1047.6482 34.6983 1.0450
4330.00 1528.6462 1047.6924 34.6983 1.0445
4340.00 1528.8277 1047.7366 34.6983 1.0441
4350.00 1529.0093 1047.7809 34.6984 1.0436
4360.00 1529.1908 1047.8251 34.6984 1.0432
4370.00 1529.3723 1047.8693 34.6985 1.0427
4380.00 1529.5538 1047.9136 34.6985 1.0423
4390.00 1529.7353 1047.9578 34.6985 1.0418
4400.00 1529.9168 1048.0020 34.6986 1.0414
4410.00 1530.0983 1048.0463 34.6986 1.0409
4420.00 1530.2799 1048.0905 34.6987 1.0405
4430.00 1530.4614 1048.1347 34.6987 1.0400
4440.00 1530.6429 1048.1789 34.6987 1.0396
4450.00 1530.8244 1048.2232 34.6988 1.0391
4460.00 1531.0059 1048.2674 34.6988 1.0387
4470.00 1531.1874 1048.3116 34.6989 1.0382
4480.00 1531.3689 1048.3559 34.6989 1.0378
4490.00 1531.5505 1048.4001 34.6990 1.0373
4500.00 1531.7320 1048.4443 34.6990 1.0369
4510.00 1531.9135 1048.4886 34.6990 1.0364
4520.00 1532.0950 1048.5328 34.6991 1.0360
4530.00 1532.2765 1048.5770 34.6991 1.0356
4540.00 1532.4580 1048.6213 34.6992 1.0351
4550.00 1532.6395 1048.6655 34.6992 1.0347
4560.00 1532.8211 1048.7097 34.6992 1.0342
4570.00 1533.0026 1048.7539 34.6993 1.0338
4580.00 1533.1841 1048.7982 34.6993 1.0333
4590.00 1533.3656 1048.8424 34.6994 1.0329
4600.00 1533.5471 1048.8866 34.6994 1.0324
4610.00 1533.7286 1048.9309 34.6994 1.0320
4620.00 1533.9101 1048.9751 34.6995 1.0315
4630.00 1534.0917 1049.0193 34.6995 1.0311
4640.00 1534.2732 1049.0636 34.6996 1.0306
4650.00 nan nan nan nan
4660.00 nan nan nan nan
4670.00 nan nan nan nan
4680.00 nan nan nan nan
4690.00 nan nan nan nan
4700.00 nan nan nan nan
4710.00 nan nan nan nan
4720.00 nan nan nan nan
4730.00 nan nan nan nan
4740.00 nan nan nan nan
4750.00 nan nan nan nan
4760.00 nan nan nan nan
4770.00 nan nan nan nan
4780.00 nan nan nan nan
4790.00 nan nan nan nan
4800.00 nan nan nan nan
4810.00 nan nan nan nan
4820.00 nan nan nan nan
4830.00 nan nan nan nan
4840.00 nan nan nan nan
4850.00 nan nan nan nan
4860.00 nan nan nan nan
4870.00 nan nan nan nan
4880.00 nan nan nan nan
4890.00 nan nan nan nan
4900.00 nan nan nan nan
4910.00 nan nan nan nan
4920.00 nan nan nan nan
4930.00 nan nan nan nan
4940.00 nan nan nan nan
4950.00 nan nan nan nan
4960.00 nan nan nan nan
4970.00 nan nan nan nan
4980.00 nan nan nan nan
4990.00 nan nan nan nan
5000.00 nan nan nan nan
5010.00 nan nan nan nan
5020.00 nan nan nan nan
5030.00 nan nan nan nan
5040.00 nan nan nan nan
5050.00 nan nan nan nan
5060.00 nan nan nan nan
5070.00 nan nan nan nan
5080.00 nan nan nan nan
5090.00 nan nan nan nan
5100.00 nan nan nan nan
5110.00 nan nan nan nan
5120.00 nan nan nan nan
5130.00 nan nan nan nan
5140.00 nan nan nan nan
5150.00 nan nan nan nan
5160.00 nan nan nan nan
5170.00 nan nan nan nan
5180.00 nan nan nan nan
5190.00 nan nan nan nan
5200.00 nan nan nan nan
5210.00 nan nan nan nan
5220.00 nan nan nan nan
5230.00 nan nan nan nan
5240.00 nan nan nan nan
5250.00 nan nan nan nan
5260.00 nan nan nan nan
5270.00 nan nan nan nan
5280.00 nan nan nan nan
5290.00 nan nan nan nan
5300.00 nan nan nan nan
5310.00 nan nan nan nan
5320.00 nan nan nan nan
5330.00 nan nan nan nan
5340.00 nan nan nan nan
5350.00 nan nan nan nan
5360.00 nan nan nan nan
5370.00 nan nan nan nan
5380.00 nan nan nan nan
5390.00 nan nan nan nan
5400.00 nan nan nan nan
5410.00 nan nan nan nan
5420.00 nan nan nan nan
5430.00 nan nan nan nan
5440.00 nan nan nan nan
5450.00 nan nan nan nan
5460.00 nan nan nan nan
5470.00 nan nan nan nan
5480.00 nan nan nan nan
5490.00 nan nan nan nan
5500.00 nan nan nan nan
5510.00 nan nan nan nan
5520.00 nan nan nan nan
5530.00 nan nan nan nan
5540.00 nan nan nan nan
5550.00 nan nan nan nan
5560.00 nan nan nan nan
5570.00 nan nan nan nan
5580.00 nan nan nan nan
5590.00 nan nan nan nan
5600.00 nan nan nan nan
5610.00 nan nan nan nan
5620.00 nan nan nan nan
5630.00 nan nan nan nan
5640.00 nan nan nan nan
5650.00 nan nan nan nan
5660.00 nan nan nan nan
5670.00 nan nan nan nan
5680.00 nan nan nan nan
5690.00 nan nan nan nan
5700.00 nan nan nan nan
5710.00 nan nan nan nan
5720.00 nan nan nan nan
5730.00 nan nan nan nan
5740.00 nan nan nan nan
5750.00 nan nan nan nan
5760.00 nan nan nan nan
5770.00 nan nan nan nan
5780.00 nan nan nan nan
5790.00 nan nan nan nan
5800.00 nan nan nan nan
5810.00 nan nan nan nan
5820.00 nan nan nan nan
5830.00 nan nan nan nan
5840.00 nan nan nan nan
5850.00 nan nan nan nan
5860.00 nan nan nan nan
5870.00 nan nan nan nan
5880.00 nan nan nan nan
5890.00 nan nan nan nan
5900.00 nan nan nan nan
5910.00 nan nan nan nan
5920.00 nan nan nan nan
5930.00 nan nan nan nan
5940.00 nan nan nan nan
5950.00 nan nan nan nan
5960.00 nan nan nan nan
5970.00 nan nan nan nan
5980.00 nan nan nan nan
5990.00 nan nan nan nan
6000.00 nan nan nan nan
6010.00 nan nan nan nan
6020.00 nan nan nan nan
6030.00 nan nan nan nan
6040.00 nan nan nan nan
6050.00 nan nan nan nan
6060.00 nan nan nan nan
6070.00 nan nan nan nan
6080.00 nan nan nan nan
6090.00 nan nan nan nan
6100.00 nan nan nan nan
6110.00 nan nan nan nan
6120.00 nan nan nan nan
6130.00 nan nan nan nan
6140.00 nan nan nan nan
6150.00 nan nan nan nan
6160.00 nan nan nan nan
6170.00 nan nan nan nan
6180.00 nan nan nan nan
6190.00 nan nan nan nan
6200.00 nan nan nan nan
6210.00 nan nan nan nan
6220.00 nan nan nan nan
6230.00 nan nan nan nan
6240.00 nan nan nan nan
6250.00 nan nan nan nan
6260.00 nan nan nan nan
6270.00 nan nan nan nan
6280.00 nan nan nan nan
6290.00 nan nan nan nan
6300.00 nan nan nan nan
6310.00 nan nan nan nan
6320.00 nan nan nan nan
6330.00 nan nan nan nan
6340.00 nan nan nan nan
6350.00 nan nan nan nan
6360.00 nan nan nan nan
6370.00 nan nan nan nan
6380.00 nan nan nan nan
6390.00 nan nan nan nan
6400.00 nan nan nan nan
6410.00 nan nan nan nan
6420.00 nan nan nan nan
6430.00 nan nan nan nan
6440.00 nan nan nan nan
6450.00 nan nan nan nan
6460.00 nan nan nan nan
6470.00 nan nan nan nan
6480.00 nan nan nan nan
6490.00 nan nan nan nan
6500.00 nan nan nan nan
6510.00 nan nan nan nan
6520.00 nan nan nan nan
6530.00 nan nan nan nan
6540.00 nan nan nan nan
6550.00 nan nan nan nan
6560.00 nan nan nan nan
6570.00 nan nan nan nan
6580.00 nan nan nan nan
6590.00 nan nan nan nan
6600.00 nan nan nan nan
6610.00 nan nan nan nan
6620.00 nan nan nan nan
6630.00 nan nan nan nan
6640.00 nan nan nan nan
6650.00 nan nan nan nan
6660.00 nan nan nan nan
6670.00 nan nan nan nan
6680.00 nan nan nan nan
6690.00 nan nan nan nan
6700.00 nan nan nan nan
6710.00 nan nan nan nan
6720.00 nan nan nan nan
6730.00 nan nan nan nan
6740.00 nan nan nan nan
6750.00 nan nan nan nan
6760.00 nan nan nan nan
6770.00 nan nan nan nan
6780.00 nan nan nan nan
6790.00 nan nan nan nan
6800.00 nan nan nan nan
6810.00 nan nan nan nan
6820.00 nan nan nan nan
6830.00 nan nan nan nan
6840.00 nan nan nan nan
6850.00 nan nan nan nan
6860.00 nan nan nan nan
6870.00 nan nan nan nan
6880.00 nan nan nan nan
6890.00 nan nan nan nan
6900.00 nan nan nan nan
6910.00 nan nan nan nan
6920.00 nan nan nan nan
6930.00 nan nan nan nan
6940.00 nan nan nan nan
6950.00 nan nan nan nan
6960.00 nan nan nan nan
6970.00 nan nan nan nan
6980.00 nan nan nan nan
6990.00 nan nan nan nan
7000.00 nan nan nan nan
7010.00 nan nan nan nan
7020.00 nan nan nan nan
7030.00 nan nan nan nan
7040.00 nan nan nan nan
7050.00 nan nan nan nan
7060.00 nan nan nan nan
7070.00 nan nan nan nan
7080.00 nan nan nan nan
7090.00 nan nan nan nan
7100.00 nan nan nan nan
7110.00 nan nan nan nan
7120.00 nan nan nan nan
7130.00 nan nan nan nan
7140.00 nan nan nan nan
7150.00 nan nan nan nan
7160.00 nan nan nan nan
7170.00 nan nan nan nan
7180.00 nan nan nan nan
7190.00 nan nan nan nan
7200.00 nan nan nan nan
7210.00 nan nan nan nan
7220.00 nan nan nan nan
7230.00 nan nan nan nan
7240.00 nan nan nan nan
7250.00 nan nan nan nan
7260.00 nan nan nan nan
7270.00 nan nan nan nan
7280.00 nan nan nan nan
7290.00 nan nan nan nan
7300.00 nan nan nan nan
7310.00 nan nan nan nan
7320.00 nan nan nan nan
7330.00 nan nan nan nan
7340.00 nan nan nan nan
7350.00 nan nan nan nan
7360.00 nan nan nan nan
7370.00 nan nan nan nan
7380.00 nan nan nan nan
7390.00 nan nan nan nan
7400.00 nan nan nan nan
7410.00 nan nan nan nan
7420.00 nan nan nan nan
7430.00 nan nan nan nan
7440.00 nan nan nan nan
7450.00 nan nan nan nan
7460.00 nan nan nan nan
7470.00 nan nan nan nan
7480.00 nan nan nan nan
7490.00 nan nan nan nan
7500.00 nan nan nan nan
7510.00 nan nan nan nan
7520.00 nan nan nan nan
7530.00 nan nan nan nan
7540.00 nan nan nan nan
7550.00 nan nan nan nan
7560.00 nan nan nan nan
7570.00 nan nan nan nan
7580.00 nan nan nan nan
7590.00 nan nan nan nan
7600.00 nan nan nan nan
7610.00 nan nan nan nan
7620.00 nan nan nan nan
7630.00 nan nan nan nan
7640.00 nan nan nan nan
7650.00 nan nan nan nan
7660.00 nan nan nan nan
7670.00 nan nan nan nan
7680.00 nan nan nan nan
7690.00 nan nan nan nan
7700.00 nan nan nan nan
7710.00 nan nan nan nan
7720.00 nan nan nan nan
7730.00 nan nan nan nan
7740.00 nan nan nan nan
7750.00 nan nan nan nan
7760.00 nan nan nan nan
7770.00 nan nan nan nan
7780.00 nan nan nan nan
7790.00 nan nan nan nan
7800.00 nan nan nan nan
7810.00 nan nan nan nan
7820.00 nan nan nan nan
7830.00 nan nan nan nan
7840.00 nan nan nan nan
7850.00 nan nan nan nan
7860.00 nan nan nan nan
7870.00 nan nan nan nan
7880.00 nan nan nan nan
7890.00 nan nan nan nan
7900.00 nan nan nan nan
7910.00 nan nan nan nan
7920.00 nan nan nan nan
7930.00 nan nan nan nan
7940.00 nan nan nan nan
7950.00 nan nan nan nan
7960.00 nan nan nan nan
7970.00 nan nan nan nan
7980.00 nan nan nan nan
7990.00 nan nan nan nan
