# Averages over distance (i) for each depth (k):
# Depth(m) Speed(m/s) Density(kg/m^3) Salt PSU Theta(degC)
0.00 1535.8635 1024.0026 35.9414 25.1705
10.00 1535.9555 1024.0559 35.9412 25.1375
20.00 1535.8512 1024.1361 35.9428 25.0212
30.00 1535.4440 1024.2562 35.9462 24.7779
40.00 1534.9176 1024.3881 35.9471 24.4880
50.00 1534.3747 1024.5164 35.9433 24.1962
60.00 1533.8206 1024.6408 35.9351 23.9044
70.00 1533.2663 1024.7609 35.9235 23.6165
80.00 1532.7425 1024.8742 35.9098 23.3443
90.00 1532.2639 1024.9798 35.8947 23.0928
100.00 1531.8140 1025.0796 35.8779 22.8554
110.00 1531.3635 1025.1769 35.8592 22.6202
120.00 1530.8825 1025.2746 35.8382 22.3759
130.00 1530.3384 1025.3751 35.8136 22.1108
140.00 1529.7142 1025.4794 35.7847 21.8187
150.00 1529.0019 1025.5877 35.7517 21.4984
160.00 1528.2853 1025.6953 35.7192 21.1791
170.00 1527.5655 1025.8023 35.6869 20.8606
180.00 1526.8839 1025.9050 35.6568 20.5595
190.00 1526.2145 1026.0064 35.6274 20.2640
200.00 1525.5523 1026.1059 35.5985 19.9741
210.00 1524.8966 1026.2035 35.5700 19.6892
220.00 1524.2409 1026.3011 35.5414 19.4043
230.00 1523.5040 1026.4007 35.5102 19.0977
240.00 1522.7369 1026.5011 35.4780 18.7830
250.00 1521.9698 1026.6014 35.4458 18.4683
260.00 1521.1362 1026.7038 35.4115 18.1350
270.00 1520.1061 1026.8123 35.3711 17.7471
280.00 1519.0761 1026.9209 35.3306 17.3592
290.00 1518.0461 1027.0294 35.2901 16.9712
300.00 1517.0141 1027.1379 35.2496 16.5828
310.00 1515.7022 1027.2500 35.2024 16.1283
320.00 1514.3902 1027.3622 35.1552 15.6738
330.00 1513.0783 1027.4743 35.1080 15.2193
340.00 1511.7664 1027.5864 35.0609 14.7647
350.00 1510.4545 1027.6985 35.0137 14.3102
360.00 1509.0803 1027.8017 34.9691 13.8636
370.00 1507.7016 1027.9043 34.9247 13.4175
380.00 1506.3229 1028.0068 34.8802 12.9714
390.00 1504.9442 1028.1094 34.8358 12.5254
400.00 1503.5654 1028.2120 34.7914 12.0793
410.00 1502.1884 1028.3144 34.7470 11.6339
420.00 1501.0468 1028.3993 34.7145 11.2787
430.00 1499.9052 1028.4843 34.6820 10.9235
440.00 1498.7636 1028.5692 34.6495 10.5683
450.00 1497.6220 1028.6541 34.6170 10.2131
460.00 1496.4804 1028.7390 34.5845 9.8579
470.00 1495.3389 1028.8240 34.5519 9.5026
480.00 1494.2978 1028.9050 34.5230 9.1776
490.00 1493.5533 1028.9746 34.5045 8.9417
500.00 1492.8089 1029.0443 34.4861 8.7058
510.00 1492.0645 1029.1139 34.4676 8.4698
520.00 1491.3201 1029.1835 34.4491 8.2339
530.00 1490.5757 1029.2531 34.4307 7.9980
540.00 1489.8313 1029.3227 34.4122 7.7620
550.00 1489.0869 1029.3924 34.3937 7.5261
560.00 1488.5962 1029.4556 34.3830 7.3588
570.00 1488.1999 1029.5164 34.3752 7.2170
580.00 1487.8035 1029.5773 34.3673 7.0753
590.00 1487.4072 1029.6381 34.3595 6.9335
600.00 1487.0108 1029.6990 34.3516 6.7917
610.00 1486.6145 1029.7598 34.3438 6.6499
620.00 1486.2181 1029.8207 34.3360 6.5082
630.00 1485.8218 1029.8815 34.3281 6.3664
640.00 1485.5310 1029.9406 34.3236 6.2516
650.00 1485.3351 1029.9982 34.3222 6.1612
660.00 1485.1393 1030.0558 34.3207 6.0708
670.00 1484.9434 1030.1133 34.3193 5.9804
680.00 1484.7475 1030.1709 34.3178 5.8900
690.00 1484.5517 1030.2285 34.3163 5.7996
700.00 1484.3558 1030.2860 34.3149 5.7092
710.00 1484.1600 1030.3436 34.3134 5.6188
720.00 1483.9641 1030.4011 34.3120 5.5284
730.00 1483.8484 1030.4579 34.3133 5.4579
740.00 1483.7579 1030.5145 34.3155 5.3937
750.00 1483.6674 1030.5710 34.3178 5.3294
760.00 1483.5770 1030.6276 34.3200 5.2652
770.00 1483.4865 1030.6841 34.3223 5.2010
780.00 1483.3961 1030.7406 34.3245 5.1367
790.00 1483.3056 1030.7972 34.3267 5.0725
800.00 1483.2151 1030.8537 34.3290 5.0082
810.00 1483.1247 1030.9103 34.3312 4.9440
820.00 1483.0685 1030.9664 34.3344 4.8882
830.00 1483.0401 1031.0222 34.3385 4.8392
840.00 1483.0116 1031.0780 34.3425 4.7901
850.00 1482.9832 1031.1338 34.3465 4.7411
860.00 1482.9547 1031.1895 34.3506 4.6921
870.00 1482.9263 1031.2453 34.3546 4.6431
880.00 1482.8978 1031.3011 34.3586 4.5940
890.00 1482.8694 1031.3569 34.3627 4.5450
900.00 1482.8410 1031.4127 34.3667 4.4960
910.00 1482.8135 1031.4684 34.3707 4.4472
920.00 1482.8219 1031.5233 34.3752 4.4073
930.00 1482.8303 1031.5781 34.3796 4.3675
940.00 1482.8388 1031.6329 34.3840 4.3276
950.00 1482.8472 1031.6877 34.3884 4.2877
960.00 1482.8556 1031.7425 34.3928 4.2479
970.00 1482.8641 1031.7973 34.3972 4.2080
980.00 1482.8725 1031.8521 34.4016 4.1681
990.00 1482.8810 1031.9070 34.4060 4.1283
1000.00 1482.8894 1031.9618 34.4104 4.0884
1010.00 1482.9026 1032.0163 34.4147 4.0498
1020.00 1482.9278 1032.0702 34.4187 4.0143
1030.00 1482.9529 1032.1241 34.4228 3.9788
1040.00 1482.9781 1032.1780 34.4268 3.9434
1050.00 1483.0033 1032.2319 34.4308 3.9079
1060.00 1483.0285 1032.2858 34.4349 3.8724
1070.00 1483.0536 1032.3397 34.4389 3.8369
1080.00 1483.0788 1032.3937 34.4429 3.8014
1090.00 1483.1040 1032.4476 34.4469 3.7660
1100.00 1483.1292 1032.5015 34.4510 3.7305
1110.00 1483.1568 1032.5551 34.4548 3.6957
1120.00 1483.1880 1032.6082 34.4582 3.6621
1130.00 1483.2192 1032.6614 34.4617 3.6284
1140.00 1483.2504 1032.7146 34.4652 3.5948
1150.00 1483.2816 1032.7678 34.4686 3.5611
1160.00 1483.3128 1032.8210 34.4721 3.5275
1170.00 1483.3440 1032.8742 34.4756 3.4938
1180.00 1483.3752 1032.9273 34.4790 3.4602
1190.00 1483.4063 1032.9805 34.4825 3.4265
1200.00 1483.4375 1033.0337 34.4859 3.3929
1210.00 1483.4730 1033.0865 34.4892 3.3604
1220.00 1483.5138 1033.1389 34.4921 3.3293
1230.00 1483.5545 1033.1913 34.4950 3.2982
1240.00 1483.5953 1033.2437 34.4979 3.2672
1250.00 1483.6361 1033.2961 34.5009 3.2361
1260.00 1483.6768 1033.3485 34.5038 3.2051
1270.00 1483.7176 1033.4009 34.5067 3.1740
1280.00 1483.7583 1033.4533 34.5097 3.1429
1290.00 1483.7991 1033.5057 34.5126 3.1119
1300.00 1483.8399 1033.5581 34.5155 3.0808
1310.00 1483.8880 1033.6101 34.5182 3.0516
1320.00 1483.9482 1033.6615 34.5207 3.0253
1330.00 1484.0083 1033.7129 34.5231 2.9990
1340.00 1484.0685 1033.7643 34.5256 2.9727
1350.00 1484.1287 1033.8157 34.5280 2.9464
1360.00 1484.1889 1033.8670 34.5305 2.9201
1370.00 1484.2490 1033.9184 34.5329 2.8938
1380.00 1484.3092 1033.9698 34.5354 2.8675
1390.00 1484.3694 1034.0212 34.5378 2.8412
1400.00 1484.4296 1034.0726 34.5403 2.8150
1410.00 1484.4917 1034.1239 34.5427 2.7891
1420.00 1484.5749 1034.1743 34.5448 2.7683
1430.00 1484.6582 1034.2247 34.5469 2.7475
1440.00 1484.7414 1034.2751 34.5490 2.7267
1450.00 1484.8247 1034.3255 34.5511 2.7059
1460.00 1484.9079 1034.3759 34.5531 2.6851
1470.00 1484.9911 1034.4263 34.5552 2.6642
1480.00 1485.0744 1034.4767 34.5573 2.6434
1490.00 1485.1576 1034.5271 34.5594 2.6226
1500.00 1485.2409 1034.5774 34.5615 2.6018
1510.00 1485.3241 1034.6278 34.5636 2.5810
1520.00 1485.4133 1034.6780 34.5656 2.5615
1530.00 1485.5171 1034.7275 34.5674 2.5455
1540.00 1485.6210 1034.7770 34.5692 2.5295
1550.00 1485.7248 1034.8266 34.5710 2.5135
1560.00 1485.8286 1034.8761 34.5729 2.4974
1570.00 1485.9324 1034.9256 34.5747 2.4814
1580.00 1486.0363 1034.9751 34.5765 2.4654
1590.00 1486.1401 1035.0247 34.5783 2.4494
1600.00 1486.2439 1035.0742 34.5801 2.4333
1610.00 1486.3477 1035.1237 34.5819 2.4173
1620.00 1486.4516 1035.1732 34.5837 2.4013
1630.00 1486.5554 1035.2228 34.5855 2.3853
1640.00 1486.6689 1035.2718 34.5872 2.3715
1650.00 1486.7894 1035.3206 34.5887 2.3593
1660.00 1486.9098 1035.3694 34.5902 2.3470
1670.00 1487.0303 1035.4181 34.5917 2.3348
1680.00 1487.1508 1035.4669 34.5932 2.3226
1690.00 1487.2712 1035.5157 34.5947 2.3104
1700.00 1487.3917 1035.5644 34.5962 2.2982
1710.00 1487.5121 1035.6132 34.5977 2.2860
1720.00 1487.6326 1035.6619 34.5992 2.2738
1730.00 1487.7531 1035.7107 34.6007 2.2616
1740.00 1487.8735 1035.7595 34.6022 2.2494
1750.00 1487.9940 1035.8082 34.6037 2.2372
1760.00 1488.1144 1035.8570 34.6052 2.2250
1770.00 1488.2408 1035.9054 34.6066 2.2141
1780.00 1488.3734 1035.9535 34.6078 2.2047
1790.00 1488.5060 1036.0016 34.6089 2.1953
1800.00 1488.6386 1036.0497 34.6101 2.1858
1810.00 1488.7712 1036.0978 34.6113 2.1764
1820.00 1488.9038 1036.1459 34.6125 2.1669
1830.00 1489.0364 1036.1940 34.6136 2.1575
1840.00 1489.1690 1036.2421 34.6148 2.1480
1850.00 1489.3016 1036.2902 34.6160 2.1386
1860.00 1489.4342 1036.3383 34.6172 2.1291
1870.00 1489.5668 1036.3864 34.6183 2.1197
1880.00 1489.6994 1036.4344 34.6195 2.1102
1890.00 1489.8320 1036.4825 34.6207 2.1008
1900.00 1489.9646 1036.5306 34.6219 2.0913
1910.00 1490.0972 1036.5787 34.6230 2.0819
1920.00 1490.2347 1036.6265 34.6240 2.0735
1930.00 1490.3755 1036.6740 34.6249 2.0659
1940.00 1490.5163 1036.7216 34.6258 2.0583
1950.00 1490.6571 1036.7691 34.6267 2.0506
1960.00 1490.7979 1036.8167 34.6275 2.0430
1970.00 1490.9387 1036.8642 34.6284 2.0354
1980.00 1491.0795 1036.9118 34.6293 2.0277
1990.00 1491.2203 1036.9593 34.6302 2.0201
2000.00 1491.3612 1037.0069 34.6311 2.0125
2010.00 1491.5020 1037.0544 34.6319 2.0048
2020.00 1491.6428 1037.1020 34.6328 1.9972
2030.00 1491.7836 1037.1495 34.6337 1.9896
2040.00 1491.9244 1037.1971 34.6346 1.9820
2050.00 1492.0652 1037.2446 34.6354 1.9743
2060.00 1492.2060 1037.2922 34.6363 1.9667
2070.00 1492.3469 1037.3397 34.6372 1.9591
2080.00 1492.4877 1037.3873 34.6381 1.9514
2090.00 1492.6319 1037.4345 34.6388 1.9445
2100.00 1492.7784 1037.4817 34.6395 1.9381
2110.00 1492.9249 1037.5288 34.6401 1.9317
2120.00 1493.0715 1037.5759 34.6408 1.9252
2130.00 1493.2180 1037.6230 34.6414 1.9188
2140.00 1493.3645 1037.6701 34.6420 1.9124
2150.00 1493.5111 1037.7172 34.6427 1.9059
2160.00 1493.6576 1037.7643 34.6433 1.8995
2170.00 1493.8041 1037.8114 34.6440 1.8931
2180.00 1493.9506 1037.8585 34.6446 1.8867
2190.00 1494.0972 1037.9056 34.6453 1.8802
2200.00 1494.2437 1037.9528 34.6459 1.8738
2210.00 1494.3902 1037.9999 34.6465 1.8674
2220.00 1494.5367 1038.0470 34.6472 1.8609
2230.00 1494.6833 1038.0941 34.6478 1.8545
2240.00 1494.8298 1038.1412 34.6485 1.8481
2250.00 1494.9763 1038.1883 34.6491 1.8417
2260.00 1495.1228 1038.2354 34.6498 1.8352
2270.00 1495.2694 1038.2825 34.6504 1.8288
2280.00 1495.4175 1038.3295 34.6510 1.8227
2290.00 1495.5684 1038.3763 34.6515 1.8171
2300.00 1495.7193 1038.4230 34.6519 1.8115
2310.00 1495.8702 1038.4698 34.6524 1.8059
2320.00 1496.0211 1038.5165 34.6529 1.8004
2330.00 1496.1720 1038.5633 34.6534 1.7948
2340.00 1496.3229 1038.6100 34.6538 1.7892
2350.00 1496.4738 1038.6568 34.6543 1.7836
2360.00 1496.6247 1038.7035 34.6548 1.7780
2370.00 1496.7756 1038.7503 34.6553 1.7725
2380.00 1496.9265 1038.7970 34.6557 1.7669
2390.00 1497.0774 1038.8438 34.6562 1.7613
2400.00 1497.2283 1038.8905 34.6567 1.7557
2410.00 1497.3792 1038.9373 34.6572 1.7501
2420.00 1497.5300 1038.9840 34.6576 1.7446
2430.00 1497.6809 1039.0308 34.6581 1.7390
2440.00 1497.8318 1039.0775 34.6586 1.7334
2450.00 1497.9827 1039.1243 34.6591 1.7278
2460.00 1498.1336 1039.1710 34.6595 1.7222
2470.00 1498.2845 1039.2178 34.6600 1.7167
2480.00 1498.4354 1039.2645 34.6605 1.7111
2490.00 1498.5863 1039.3113 34.6610 1.7055
2500.00 1498.7402 1039.3577 34.6613 1.7004
2510.00 1498.8944 1039.4042 34.6617 1.6954
2520.00 1499.0487 1039.4507 34.6621 1.6904
2530.00 1499.2030 1039.4971 34.6625 1.6854
2540.00 1499.3573 1039.5436 34.6628 1.6804
2550.00 1499.5116 1039.5900 34.6632 1.6755
2560.00 1499.6659 1039.6365 34.6636 1.6705
2570.00 1499.8201 1039.6829 34.6639 1.6655
2580.00 1499.9744 1039.7294 34.6643 1.6605
2590.00 1500.1287 1039.7758 34.6647 1.6555
2600.00 1500.2830 1039.8223 34.6650 1.6505
2610.00 1500.4373 1039.8687 34.6654 1.6455
2620.00 1500.5916 1039.9152 34.6658 1.6405
2630.00 1500.7458 1039.9617 34.6661 1.6355
2640.00 1500.9001 1040.0081 34.6665 1.6305
2650.00 1501.0544 1040.0546 34.6669 1.6255
2660.00 1501.2087 1040.1010 34.6672 1.6205
2670.00 1501.3630 1040.1475 34.6676 1.6155
2680.00 1501.5173 1040.1939 34.6680 1.6105
2690.00 1501.6716 1040.2404 34.6683 1.6055
2700.00 1501.8258 1040.2868 34.6687 1.6005
2710.00 1501.9801 1040.3333 34.6691 1.5955
2720.00 1502.1344 1040.3797 34.6694 1.5905
2730.00 1502.2889 1040.4262 34.6698 1.5856
2740.00 1502.4460 1040.4724 34.6701 1.5810
2750.00 1502.6030 1040.5186 34.6704 1.5764
2760.00 1502.7601 1040.5648 34.6707 1.5718
2770.00 1502.9172 1040.6110 34.6710 1.5672
2780.00 1503.0743 1040.6572 34.6713 1.5626
2790.00 1503.2313 1040.7034 34.6717 1.5580
2800.00 1503.3884 1040.7496 34.6720 1.5535
2810.00 1503.5455 1040.7958 34.6723 1.5489
2820.00 1503.7026 1040.8420 34.6726 1.5443
2830.00 1503.8596 1040.8882 34.6729 1.5397
2840.00 1504.0167 1040.9344 34.6732 1.5351
2850.00 1504.1738 1040.9806 34.6735 1.5305
2860.00 1504.3309 1041.0268 34.6738 1.5260
2870.00 1504.4879 1041.0730 34.6741 1.5214
2880.00 1504.6450 1041.1192 34.6744 1.5168
2890.00 1504.8021 1041.1654 34.6747 1.5122
2900.00 1504.9592 1041.2116 34.6750 1.5076
2910.00 1505.1162 1041.2578 34.6753 1.5030
2920.00 1505.2733 1041.3040 34.6756 1.4984
2930.00 1505.4304 1041.3502 34.6760 1.4939
2940.00 1505.5875 1041.3964 34.6763 1.4893
2950.00 1505.7445 1041.4426 34.6766 1.4847
2960.00 1505.9016 1041.4888 34.6769 1.4801
2970.00 1506.0587 1041.5350 34.6772 1.4755
2980.00 1506.2158 1041.5812 34.6775 1.4709
2990.00 1506.3728 1041.6274 34.6778 1.4663
3000.00 1506.5323 1041.6734 34.6781 1.4621
3010.00 1506.6918 1041.7193 34.6784 1.4578
3020.00 1506.8513 1041.7653 34.6786 1.4535
3030.00 1507.0108 1041.8113 34.6789 1.4492
3040.00 1507.1703 1041.8573 34.6792 1.4449
3050.00 1507.3298 1041.9032 34.6795 1.4406
3060.00 1507.4893 1041.9492 34.6797 1.4363
3070.00 1507.6488 1041.9952 34.6800 1.4320
3080.00 1507.8083 1042.0411 34.6803 1.4278
3090.00 1507.9678 1042.0871 34.6806 1.4235
3100.00 1508.1273 1042.1331 34.6809 1.4192
3110.00 1508.2868 1042.1791 34.6811 1.4149
3120.00 1508.4463 1042.2250 34.6814 1.4106
3130.00 1508.6058 1042.2710 34.6817 1.4063
3140.00 1508.7653 1042.3170 34.6820 1.4020
3150.00 1508.9249 1042.3629 34.6823 1.3978
3160.00 1509.0844 1042.4089 34.6825 1.3935
3170.00 1509.2439 1042.4549 34.6828 1.3892
3180.00 1509.4034 1042.5008 34.6831 1.3849
3190.00 1509.5629 1042.5468 34.6834 1.3806
3200.00 1509.7224 1042.5928 34.6836 1.3763
3210.00 1509.8819 1042.6388 34.6839 1.3720
3220.00 1510.0414 1042.6847 34.6842 1.3677
3230.00 1510.2009 1042.7307 34.6845 1.3635
3240.00 1510.3604 1042.7767 34.6848 1.3592
3250.00 1510.5199 1042.8226 34.6850 1.3549
3260.00 1510.6794 1042.8686 34.6853 1.3506
3270.00 1510.8389 1042.9146 34.6856 1.3463
3280.00 1511.0004 1042.9604 34.6859 1.3423
3290.00 1511.1634 1043.0061 34.6861 1.3386
3300.00 1511.3264 1043.0518 34.6864 1.3348
3310.00 1511.4895 1043.0975 34.6866 1.3310
3320.00 1511.6525 1043.1431 34.6869 1.3272
3330.00 1511.8155 1043.1888 34.6871 1.3235
3340.00 1511.9785 1043.2345 34.6874 1.3197
3350.00 1512.1415 1043.2802 34.6876 1.3159
3360.00 1512.3045 1043.3259 34.6878 1.3122
3370.00 1512.4675 1043.3716 34.6881 1.3084
3380.00 1512.6305 1043.4173 34.6883 1.3046
3390.00 1512.7935 1043.4629 34.6886 1.3009
3400.00 1512.9565 1043.5086 34.6888 1.2971
3410.00 1513.1196 1043.5543 34.6891 1.2933
3420.00 1513.2826 1043.6000 34.6893 1.2896
3430.00 1513.4456 1043.6457 34.6896 1.2858
3440.00 1513.6086 1043.6914 34.6898 1.2820
3450.00 1513.7716 1043.7371 34.6901 1.2782
3460.00 1513.9346 1043.7827 34.6903 1.2745
3470.00 1514.0976 1043.8284 34.6906 1.2707
3480.00 1514.2606 1043.8741 34.6908 1.2669
3490.00 1514.4236 1043.9198 34.6911 1.2632
3500.00 1514.5866 1043.9655 34.6913 1.2594
3510.00 1514.7497 1044.0112 34.6916 1.2556
3520.00 1514.9127 1044.0569 34.6918 1.2519
3530.00 1515.0757 1044.1025 34.6921 1.2481
3540.00 1515.2387 1044.1482 34.6923 1.2443
3550.00 1515.4017 1044.1939 34.6926 1.2406
3560.00 1515.5647 1044.2396 34.6928 1.2368
3570.00 1515.7277 1044.2853 34.6931 1.2330
3580.00 1515.8907 1044.3310 34.6933 1.2292
3590.00 1516.0580 1044.3763 34.6935 1.2262
3600.00 1516.2258 1044.4217 34.6937 1.2232
3610.00 1516.3937 1044.4670 34.6940 1.2202
3620.00 1516.5616 1044.5123 34.6942 1.2173
3630.00 1516.7294 1044.5576 34.6944 1.2143
3640.00 1516.8973 1044.6029 34.6946 1.2113
3650.00 1517.0651 1044.6482 34.6948 1.2084
3660.00 1517.2330 1044.6936 34.6950 1.2054
3670.00 1517.4009 1044.7389 34.6952 1.2024
3680.00 1517.5687 1044.7842 34.6954 1.1995
3690.00 1517.7366 1044.8295 34.6956 1.1965
3700.00 1517.9044 1044.8748 34.6958 1.1935
3710.00 1518.0723 1044.9202 34.6960 1.1906
3720.00 1518.2402 1044.9655 34.6962 1.1876
3730.00 1518.4080 1045.0108 34.6964 1.1846
3740.00 1518.5759 1045.0561 34.6966 1.1817
3750.00 1518.7437 1045.1014 34.6968 1.1787
3760.00 1518.9116 1045.1468 34.6970 1.1757
3770.00 1519.0795 1045.1921 34.6972 1.1728
3780.00 1519.2473 1045.2374 34.6975 1.1698
3790.00 1519.4152 1045.2827 34.6977 1.1668
3800.00 1519.5831 1045.3280 34.6979 1.1639
3810.00 1519.7509 1045.3733 34.6981 1.1609
3820.00 1519.9188 1045.4187 34.6983 1.1579
3830.00 1520.0866 1045.4640 34.6985 1.1550
3840.00 1520.2545 1045.5093 34.6987 1.1520
3850.00 1520.4224 1045.5546 34.6989 1.1490
3860.00 1520.5902 1045.5999 34.6991 1.1461
3870.00 1520.7581 1045.6453 34.6993 1.1431
3880.00 1520.9259 1045.6906 34.6995 1.1401
3890.00 1521.0938 1045.7359 34.6997 1.1372
3900.00 1521.2617 1045.7812 34.6999 1.1342
3910.00 1521.4295 1045.8265 34.7001 1.1312
3920.00 1521.6042 1045.8714 34.7003 1.1296
3930.00 1521.7798 1045.9161 34.7004 1.1280
3940.00 1521.9554 1045.9609 34.7005 1.1265
3950.00 1522.1310 1046.0057 34.7006 1.1250
3960.00 1522.3067 1046.0504 34.7007 1.1235
3970.00 1522.4823 1046.0952 34.7008 1.1220
3980.00 1522.6579 1046.1400 34.7009 1.1205
3990.00 1522.8335 1046.1848 34.7011 1.1190
4000.00 1523.0091 1046.2295 34.7012 1.1174
4010.00 1523.1848 1046.2743 34.7013 1.1159
4020.00 1523.3604 1046.3191 34.7014 1.1144
4030.00 1523.5360 1046.3638 34.7015 1.1129
4040.00 1523.7116 1046.4086 34.7016 1.1114
4050.00 1523.8872 1046.4534 34.7018 1.1099
4060.00 1524.0629 1046.4981 34.7019 1.1084
4070.00 1524.2385 1046.5429 34.7020 1.1068
4080.00 1524.4141 1046.5877 34.7021 1.1053
4090.00 1524.5897 1046.6325 34.7022 1.1038
4100.00 1524.7654 1046.6772 34.7023 1.1023
4110.00 1524.9410 1046.7220 34.7025 1.1008
4120.00 1525.1166 1046.7668 34.7026 1.0993
4130.00 1525.2922 1046.8115 34.7027 1.0978
4140.00 1525.4678 1046.8563 34.7028 1.0962
4150.00 1525.6435 1046.9011 34.7029 1.0947
4160.00 1525.8191 1046.9458 34.7030 1.0932
4170.00 1525.9947 1046.9906 34.7031 1.0917
4180.00 1526.1703 1047.0354 34.7033 1.0902
4190.00 1526.3459 1047.0802 34.7034 1.0887
4200.00 1526.5216 1047.1249 34.7035 1.0872
4210.00 1526.6972 1047.1697 34.7036 1.0856
4220.00 1526.8728 1047.2145 34.7037 1.0841
4230.00 1527.0484 1047.2592 34.7038 1.0826
4240.00 1527.2241 1047.3040 34.7040 1.0811
4250.00 1527.3997 1047.3488 34.7041 1.0796
4260.00 1527.5753 1047.3935 34.7042 1.0781
4270.00 1527.7555 1047.4379 34.7042 1.0774
4280.00 1527.9391 1047.4821 34.7042 1.0774
4290.00 1528.1227 1047.5262 34.7042 1.0774
4300.00 1528.3063 1047.5704 34.7042 1.0774
4310.00 1528.4899 1047.6145 34.7042 1.0774
4320.00 1528.6735 1047.6587 34.7042 1.0774
4330.00 1528.8571 1047.7028 34.7042 1.0774
4340.00 1529.0407 1047.7469 34.7042 1.0774
4350.00 1529.2243 1047.7911 34.7042 1.0774
4360.00 1529.4079 1047.8352 34.7042 1.0774
4370.00 1529.5915 1047.8794 34.7042 1.0774
4380.00 1529.7751 1047.9235 34.7042 1.0774
4390.00 1529.9587 1047.9676 34.7042 1.0774
4400.00 1530.1423 1048.0118 34.7042 1.0774
4410.00 1530.3259 1048.0559 34.7042 1.0774
4420.00 1530.5095 1048.1001 34.7042 1.0774
4430.00 1530.6931 1048.1442 34.7042 1.0774
4440.00 1530.8767 1048.1883 34.7042 1.0774
4450.00 1531.0603 1048.2325 34.7042 1.0774
4460.00 1531.2439 1048.2766 34.7042 1.0774
4470.00 1531.4275 1048.3208 34.7042 1.0774
4480.00 1531.6111 1048.3649 34.7042 1.0774
4490.00 1531.7947 1048.4090 34.7042 1.0774
4500.00 1531.9783 1048.4532 34.7042 1.0774
4510.00 1532.1619 1048.4973 34.7042 1.0774
4520.00 1532.3455 1048.5415 34.7042 1.0774
4530.00 1532.5291 1048.5856 34.7042 1.0774
4540.00 1532.7127 1048.6298 34.7042 1.0774
4550.00 1532.8963 1048.6739 34.7042 1.0774
4560.00 1533.0799 1048.7180 34.7042 1.0774
4570.00 1533.2635 1048.7622 34.7042 1.0774
4580.00 1533.4471 1048.8063 34.7042 1.0774
4590.00 1533.6307 1048.8505 34.7042 1.0774
4600.00 1533.8143 1048.8946 34.7042 1.0774
4610.00 1533.9979 1048.9387 34.7042 1.0774
4620.00 1534.1815 1048.9829 34.7042 1.0774
4630.00 1534.3651 1049.0270 34.7042 1.0774
4640.00 1534.5487 1049.0712 34.7042 1.0774
4650.00 nan nan nan nan
4660.00 nan nan nan nan
4670.00 nan nan nan nan
4680.00 nan nan nan nan
4690.00 nan nan nan nan
4700.00 nan nan nan nan
4710.00 nan nan nan nan
4720.00 nan nan nan nan
4730.00 nan nan nan nan
4740.00 nan nan nan nan
4750.00 nan nan nan nan
4760.00 nan nan nan nan
4770.00 nan nan nan nan
4780.00 nan nan nan nan
4790.00 nan nan nan nan
4800.00 nan nan nan nan
4810.00 nan nan nan nan
4820.00 nan nan nan nan
4830.00 nan nan nan nan
4840.00 nan nan nan nan
4850.00 nan nan nan nan
4860.00 nan nan nan nan
4870.00 nan nan nan nan
4880.00 nan nan nan nan
4890.00 nan nan nan nan
4900.00 nan nan nan nan
4910.00 nan nan nan nan
4920.00 nan nan nan nan
4930.00 nan nan nan nan
4940.00 nan nan nan nan
4950.00 nan nan nan nan
4960.00 nan nan nan nan
4970.00 nan nan nan nan
4980.00 nan nan nan nan
4990.00 nan nan nan nan
5000.00 nan nan nan nan
5010.00 nan nan nan nan
5020.00 nan nan nan nan
5030.00 nan nan nan nan
5040.00 nan nan nan nan
5050.00 nan nan nan nan
5060.00 nan nan nan nan
5070.00 nan nan nan nan
5080.00 nan nan nan nan
5090.00 nan nan nan nan
5100.00 nan nan nan nan
5110.00 nan nan nan nan
5120.00 nan nan nan nan
5130.00 nan nan nan nan
5140.00 nan nan nan nan
5150.00 nan nan nan nan
5160.00 nan nan nan nan
5170.00 nan nan nan nan
5180.00 nan nan nan nan
5190.00 nan nan nan nan
5200.00 nan nan nan nan
5210.00 nan nan nan nan
5220.00 nan nan nan nan
5230.00 nan nan nan nan
5240.00 nan nan nan nan
5250.00 nan nan nan nan
5260.00 nan nan nan nan
5270.00 nan nan nan nan
5280.00 nan nan nan nan
5290.00 nan nan nan nan
5300.00 nan nan nan nan
5310.00 nan nan nan nan
5320.00 nan nan nan nan
5330.00 nan nan nan nan
5340.00 nan nan nan nan
5350.00 nan nan nan nan
5360.00 nan nan nan nan
5370.00 nan nan nan nan
5380.00 nan nan nan nan
5390.00 nan nan nan nan
5400.00 nan nan nan nan
5410.00 nan nan nan nan
5420.00 nan nan nan nan
5430.00 nan nan nan nan
5440.00 nan nan nan nan
5450.00 nan nan nan nan
5460.00 nan nan nan nan
5470.00 nan nan nan nan
5480.00 nan nan nan nan
5490.00 nan nan nan nan
5500.00 nan nan nan nan
5510.00 nan nan nan nan
5520.00 nan nan nan nan
5530.00 nan nan nan nan
5540.00 nan nan nan nan
5550.00 nan nan nan nan
5560.00 nan nan nan nan
5570.00 nan nan nan nan
5580.00 nan nan nan nan
5590.00 nan nan nan nan
5600.00 nan nan nan nan
5610.00 nan nan nan nan
5620.00 nan nan nan nan
5630.00 nan nan nan nan
5640.00 nan nan nan nan
5650.00 nan nan nan nan
5660.00 nan nan nan nan
5670.00 nan nan nan nan
5680.00 nan nan nan nan
5690.00 nan nan nan nan
5700.00 nan nan nan nan
5710.00 nan nan nan nan
5720.00 nan nan nan nan
5730.00 nan nan nan nan
5740.00 nan nan nan nan
5750.00 nan nan nan nan
5760.00 nan nan nan nan
5770.00 nan nan nan nan
5780.00 nan nan nan nan
5790.00 nan nan nan nan
5800.00 nan nan nan nan
5810.00 nan nan nan nan
5820.00 nan nan nan nan
5830.00 nan nan nan nan
5840.00 nan nan nan nan
5850.00 nan nan nan nan
5860.00 nan nan nan nan
5870.00 nan nan nan nan
5880.00 nan nan nan nan
5890.00 nan nan nan nan
5900.00 nan nan nan nan
5910.00 nan nan nan nan
5920.00 nan nan nan nan
5930.00 nan nan nan nan
5940.00 nan nan nan nan
5950.00 nan nan nan nan
5960.00 nan nan nan nan
5970.00 nan nan nan nan
5980.00 nan nan nan nan
5990.00 nan nan nan nan
6000.00 nan nan nan nan
6010.00 nan nan nan nan
6020.00 nan nan nan nan
6030.00 nan nan nan nan
6040.00 nan nan nan nan
6050.00 nan nan nan nan
6060.00 nan nan nan nan
6070.00 nan nan nan nan
6080.00 nan nan nan nan
6090.00 nan nan nan nan
6100.00 nan nan nan nan
6110.00 nan nan nan nan
6120.00 nan nan nan nan
6130.00 nan nan nan nan
6140.00 nan nan nan nan
6150.00 nan nan nan nan
6160.00 nan nan nan nan
6170.00 nan nan nan nan
6180.00 nan nan nan nan
6190.00 nan nan nan nan
6200.00 nan nan nan nan
6210.00 nan nan nan nan
6220.00 nan nan nan nan
6230.00 nan nan nan nan
6240.00 nan nan nan nan
6250.00 nan nan nan nan
6260.00 nan nan nan nan
6270.00 nan nan nan nan
6280.00 nan nan nan nan
6290.00 nan nan nan nan
6300.00 nan nan nan nan
6310.00 nan nan nan nan
6320.00 nan nan nan nan
6330.00 nan nan nan nan
6340.00 nan nan nan nan
6350.00 nan nan nan nan
6360.00 nan nan nan nan
6370.00 nan nan nan nan
6380.00 nan nan nan nan
6390.00 nan nan nan nan
6400.00 nan nan nan nan
6410.00 nan nan nan nan
6420.00 nan nan nan nan
6430.00 nan nan nan nan
6440.00 nan nan nan nan
6450.00 nan nan nan nan
6460.00 nan nan nan nan
6470.00 nan nan nan nan
6480.00 nan nan nan nan
6490.00 nan nan nan nan
6500.00 nan nan nan nan
6510.00 nan nan nan nan
6520.00 nan nan nan nan
6530.00 nan nan nan nan
6540.00 nan nan nan nan
6550.00 nan nan nan nan
6560.00 nan nan nan nan
6570.00 nan nan nan nan
6580.00 nan nan nan nan
6590.00 nan nan nan nan
6600.00 nan nan nan nan
6610.00 nan nan nan nan
6620.00 nan nan nan nan
6630.00 nan nan nan nan
6640.00 nan nan nan nan
6650.00 nan nan nan nan
6660.00 nan nan nan nan
6670.00 nan nan nan nan
6680.00 nan nan nan nan
6690.00 nan nan nan nan
6700.00 nan nan nan nan
6710.00 nan nan nan nan
6720.00 nan nan nan nan
6730.00 nan nan nan nan
6740.00 nan nan nan nan
6750.00 nan nan nan nan
6760.00 nan nan nan nan
6770.00 nan nan nan nan
6780.00 nan nan nan nan
6790.00 nan nan nan nan
6800.00 nan nan nan nan
6810.00 nan nan nan nan
6820.00 nan nan nan nan
6830.00 nan nan nan nan
6840.00 nan nan nan nan
6850.00 nan nan nan nan
6860.00 nan nan nan nan
6870.00 nan nan nan nan
6880.00 nan nan nan nan
6890.00 nan nan nan nan
6900.00 nan nan nan nan
6910.00 nan nan nan nan
6920.00 nan nan nan nan
6930.00 nan nan nan nan
6940.00 nan nan nan nan
6950.00 nan nan nan nan
6960.00 nan nan nan nan
6970.00 nan nan nan nan
6980.00 nan nan nan nan
6990.00 nan nan nan nan
7000.00 nan nan nan nan
7010.00 nan nan nan nan
7020.00 nan nan nan nan
7030.00 nan nan nan nan
7040.00 nan nan nan nan
7050.00 nan nan nan nan
7060.00 nan nan nan nan
7070.00 nan nan nan nan
7080.00 nan nan nan nan
7090.00 nan nan nan nan
7100.00 nan nan nan nan
7110.00 nan nan nan nan
7120.00 nan nan nan nan
7130.00 nan nan nan nan
7140.00 nan nan nan nan
7150.00 nan nan nan nan
7160.00 nan nan nan nan
7170.00 nan nan nan nan
7180.00 nan nan nan nan
7190.00 nan nan nan nan
7200.00 nan nan nan nan
7210.00 nan nan nan nan
7220.00 nan nan nan nan
7230.00 nan nan nan nan
7240.00 nan nan nan nan
7250.00 nan nan nan nan
7260.00 nan nan nan nan
7270.00 nan nan nan nan
7280.00 nan nan nan nan
7290.00 nan nan nan nan
7300.00 nan nan nan nan
7310.00 nan nan nan nan
7320.00 nan nan nan nan
7330.00 nan nan nan nan
7340.00 nan nan nan nan
7350.00 nan nan nan nan
7360.00 nan nan nan nan
7370.00 nan nan nan nan
7380.00 nan nan nan nan
7390.00 nan nan nan nan
7400.00 nan nan nan nan
7410.00 nan nan nan nan
7420.00 nan nan nan nan
7430.00 nan nan nan nan
7440.00 nan nan nan nan
7450.00 nan nan nan nan
7460.00 nan nan nan nan
7470.00 nan nan nan nan
7480.00 nan nan nan nan
7490.00 nan nan nan nan
7500.00 nan nan nan nan
7510.00 nan nan nan nan
7520.00 nan nan nan nan
7530.00 nan nan nan nan
7540.00 nan nan nan nan
7550.00 nan nan nan nan
7560.00 nan nan nan nan
7570.00 nan nan nan nan
7580.00 nan nan nan nan
7590.00 nan nan nan nan
7600.00 nan nan nan nan
7610.00 nan nan nan nan
7620.00 nan nan nan nan
7630.00 nan nan nan nan
7640.00 nan nan nan nan
7650.00 nan nan nan nan
7660.00 nan nan nan nan
7670.00 nan nan nan nan
7680.00 nan nan nan nan
7690.00 nan nan nan nan
7700.00 nan nan nan nan
7710.00 nan nan nan nan
7720.00 nan nan nan nan
7730.00 nan nan nan nan
7740.00 nan nan nan nan
7750.00 nan nan nan nan
7760.00 nan nan nan nan
7770.00 nan nan nan nan
7780.00 nan nan nan nan
7790.00 nan nan nan nan
7800.00 nan nan nan nan
7810.00 nan nan nan nan
7820.00 nan nan nan nan
7830.00 nan nan nan nan
7840.00 nan nan nan nan
7850.00 nan nan nan nan
7860.00 nan nan nan nan
7870.00 nan nan nan nan
7880.00 nan nan nan nan
7890.00 nan nan nan nan
7900.00 nan nan nan nan
7910.00 nan nan nan nan
7920.00 nan nan nan nan
7930.00 nan nan nan nan
7940.00 nan nan nan nan
7950.00 nan nan nan nan
7960.00 nan nan nan nan
7970.00 nan nan nan nan
7980.00 nan nan nan nan
7990.00 nan nan nan nan
