# Averages over distance (i) for each depth (k):
# Depth(m) Speed(m/s) Density(kg/m^3) Salt PSU Theta(degC)
0.00 1541.0937 1022.4623 35.0529 27.9176
10.00 1541.2341 1022.5112 35.0542 27.9031
20.00 1541.3307 1022.5693 35.0584 27.8671
30.00 1541.2997 1022.6548 35.0719 27.7682
40.00 1541.1108 1022.7705 35.0932 27.5941
50.00 1540.8185 1022.9009 35.1145 27.3743
60.00 1540.4875 1023.0335 35.1331 27.1401
70.00 1540.1302 1023.1677 35.1502 26.8965
80.00 1539.7160 1023.3094 35.1679 26.6294
90.00 1539.1957 1023.4655 35.1868 26.3178
100.00 1538.5014 1023.6433 35.2055 25.9341
110.00 1537.5540 1023.8475 35.2194 25.4499
120.00 1536.3243 1024.0735 35.2218 24.8603
130.00 1534.8590 1024.3104 35.2101 24.1908
140.00 1533.2366 1024.5489 35.1864 23.4750
150.00 1531.5351 1024.7742 35.1501 22.7537
160.00 1529.8562 1024.9861 35.1096 22.0561
170.00 1528.1955 1025.1871 35.0656 21.3775
180.00 1526.6079 1025.3682 35.0192 20.7459
190.00 1525.0434 1025.5431 34.9721 20.1291
200.00 1523.5364 1025.7057 34.9255 19.5458
210.00 1522.0811 1025.8574 34.8792 18.9925
220.00 1520.6258 1026.0090 34.8329 18.4391
230.00 1519.2321 1026.1475 34.7889 17.9239
240.00 1517.8612 1026.2812 34.7457 17.4228
250.00 1516.4904 1026.4148 34.7025 16.9217
260.00 1515.1312 1026.5451 34.6605 16.4302
270.00 1513.8061 1026.6658 34.6220 15.9670
280.00 1512.4811 1026.7864 34.5836 15.5037
290.00 1511.1560 1026.9071 34.5451 15.0404
300.00 1509.8314 1027.0276 34.5067 14.5774
310.00 1508.5708 1027.1373 34.4760 14.1557
320.00 1507.3102 1027.2469 34.4452 13.7340
330.00 1506.0496 1027.3565 34.4145 13.3122
340.00 1504.7890 1027.4661 34.3838 12.8905
350.00 1503.5284 1027.5758 34.3531 12.4688
360.00 1502.4003 1027.6753 34.3327 12.1029
370.00 1501.2819 1027.7740 34.3130 11.7410
380.00 1500.1634 1027.8728 34.2933 11.3792
390.00 1499.0450 1027.9716 34.2737 11.0173
400.00 1497.9265 1028.0704 34.2540 10.6555
410.00 1496.8098 1028.1691 34.2344 10.2942
420.00 1495.9332 1028.2571 34.2270 10.0123
430.00 1495.0567 1028.3452 34.2196 9.7304
440.00 1494.1801 1028.4332 34.2122 9.4485
450.00 1493.3035 1028.5213 34.2049 9.1667
460.00 1492.4270 1028.6093 34.1975 8.8848
470.00 1491.5504 1028.6974 34.1901 8.6029
480.00 1490.7511 1028.7829 34.1853 8.3433
490.00 1490.1801 1028.8611 34.1881 8.1495
500.00 1489.6090 1028.9392 34.1909 7.9556
510.00 1489.0379 1029.0174 34.1937 7.7618
520.00 1488.4669 1029.0956 34.1965 7.5680
530.00 1487.8958 1029.1737 34.1993 7.3741
540.00 1487.3247 1029.2519 34.2021 7.1803
550.00 1486.7536 1029.3301 34.2049 6.9864
560.00 1486.3864 1029.4023 34.2119 6.8470
570.00 1486.0949 1029.4722 34.2205 6.7279
580.00 1485.8035 1029.5422 34.2291 6.6087
590.00 1485.5120 1029.6122 34.2377 6.4895
600.00 1485.2206 1029.6822 34.2462 6.3704
610.00 1484.9291 1029.7522 34.2548 6.2512
620.00 1484.6376 1029.8221 34.2634 6.1321
630.00 1484.3462 1029.8921 34.2720 6.0129
640.00 1484.1475 1029.9588 34.2811 5.9178
650.00 1484.0321 1030.0226 34.2907 5.8443
660.00 1483.9168 1030.0864 34.3002 5.7708
670.00 1483.8015 1030.1501 34.3098 5.6974
680.00 1483.6862 1030.2139 34.3194 5.6239
690.00 1483.5708 1030.2777 34.3289 5.5504
700.00 1483.4555 1030.3415 34.3385 5.4769
710.00 1483.3402 1030.4052 34.3481 5.4035
720.00 1483.2249 1030.4690 34.3576 5.3300
730.00 1483.1678 1030.5293 34.3656 5.2720
740.00 1483.1291 1030.5884 34.3731 5.2190
750.00 1483.0905 1030.6476 34.3805 5.1659
760.00 1483.0518 1030.7067 34.3880 5.1128
770.00 1483.0131 1030.7658 34.3955 5.0597
780.00 1482.9744 1030.8250 34.4029 5.0066
790.00 1482.9358 1030.8841 34.4104 4.9536
800.00 1482.8971 1030.9433 34.4179 4.9005
810.00 1482.8584 1031.0024 34.4253 4.8474
820.00 1482.8377 1031.0597 34.4314 4.7994
830.00 1482.8316 1031.1155 34.4362 4.7556
840.00 1482.8254 1031.1712 34.4411 4.7117
850.00 1482.8193 1031.2270 34.4459 4.6679
860.00 1482.8131 1031.2827 34.4508 4.6241
870.00 1482.8070 1031.3385 34.4556 4.5802
880.00 1482.8008 1031.3943 34.4605 4.5364
890.00 1482.7947 1031.4500 34.4653 4.4925
900.00 1482.7885 1031.5058 34.4702 4.4487
910.00 1482.7829 1031.5615 34.4750 4.4050
920.00 1482.7979 1031.6150 34.4781 4.3672
930.00 1482.8130 1031.6685 34.4812 4.3293
940.00 1482.8280 1031.7220 34.4843 4.2915
950.00 1482.8430 1031.7756 34.4874 4.2536
960.00 1482.8581 1031.8291 34.4905 4.2158
970.00 1482.8731 1031.8826 34.4936 4.1779
980.00 1482.8881 1031.9361 34.4967 4.1401
990.00 1482.9031 1031.9897 34.4998 4.1022
1000.00 1482.9182 1032.0432 34.5029 4.0644
1010.00 1482.9379 1032.0963 34.5057 4.0278
1020.00 1482.9695 1032.1485 34.5079 3.9945
1030.00 1483.0011 1032.2006 34.5101 3.9611
1040.00 1483.0327 1032.2528 34.5123 3.9277
1050.00 1483.0642 1032.3050 34.5144 3.8944
1060.00 1483.0958 1032.3571 34.5166 3.8610
1070.00 1483.1274 1032.4093 34.5188 3.8276
1080.00 1483.1590 1032.4615 34.5210 3.7943
1090.00 1483.1906 1032.5136 34.5231 3.7609
1100.00 1483.2222 1032.5658 34.5253 3.7275
1110.00 1483.2591 1032.6176 34.5273 3.6956
1120.00 1483.3037 1032.6689 34.5290 3.6656
1130.00 1483.3483 1032.7202 34.5306 3.6357
1140.00 1483.3929 1032.7715 34.5323 3.6057
1150.00 1483.4375 1032.8228 34.5340 3.5757
1160.00 1483.4821 1032.8741 34.5357 3.5458
1170.00 1483.5267 1032.9253 34.5373 3.5158
1180.00 1483.5713 1032.9766 34.5390 3.4859
1190.00 1483.6159 1033.0279 34.5407 3.4559
1200.00 1483.6605 1033.0792 34.5424 3.4259
1210.00 1483.7097 1033.1303 34.5439 3.3972
1220.00 1483.7646 1033.1809 34.5453 3.3699
1230.00 1483.8196 1033.2316 34.5467 3.3425
1240.00 1483.8745 1033.2823 34.5480 3.3152
1250.00 1483.9294 1033.3330 34.5494 3.2879
1260.00 1483.9844 1033.3837 34.5508 3.2606
1270.00 1484.0393 1033.4344 34.5522 3.2333
1280.00 1484.0942 1033.4851 34.5536 3.2060
1290.00 1484.1492 1033.5358 34.5549 3.1787
1300.00 1484.2041 1033.5864 34.5563 3.1513
1310.00 1484.2626 1033.6370 34.5576 3.1249
1320.00 1484.3269 1033.6872 34.5588 3.0999
1330.00 1484.3913 1033.7374 34.5600 3.0749
1340.00 1484.4556 1033.7876 34.5612 3.0500
1350.00 1484.5199 1033.8379 34.5624 3.0250
1360.00 1484.5843 1033.8881 34.5636 3.0000
1370.00 1484.6486 1033.9383 34.5648 2.9750
1380.00 1484.7129 1033.9886 34.5660 2.9500
1390.00 1484.7773 1034.0388 34.5672 2.9250
1400.00 1484.8416 1034.0890 34.5684 2.9000
1410.00 1484.9069 1034.1392 34.5696 2.8753
1420.00 1484.9826 1034.1890 34.5707 2.8530
1430.00 1485.0584 1034.2387 34.5718 2.8308
1440.00 1485.1341 1034.2885 34.5729 2.8085
1450.00 1485.2099 1034.3383 34.5740 2.7862
1460.00 1485.2856 1034.3880 34.5751 2.7640
1470.00 1485.3613 1034.4378 34.5762 2.7417
1480.00 1485.4371 1034.4876 34.5773 2.7195
1490.00 1485.5128 1034.5373 34.5784 2.6972
1500.00 1485.5885 1034.5871 34.5795 2.6749
1510.00 1485.6643 1034.6369 34.5806 2.6527
1520.00 1485.7443 1034.6865 34.5816 2.6314
1530.00 1485.8346 1034.7357 34.5826 2.6125
1540.00 1485.9250 1034.7849 34.5836 2.5937
1550.00 1486.0153 1034.8342 34.5846 2.5748
1560.00 1486.1057 1034.8834 34.5856 2.5559
1570.00 1486.1960 1034.9326 34.5866 2.5371
1580.00 1486.2864 1034.9818 34.5876 2.5182
1590.00 1486.3767 1035.0311 34.5886 2.4994
1600.00 1486.4671 1035.0803 34.5896 2.4805
1610.00 1486.5574 1035.1295 34.5907 2.4616
1620.00 1486.6478 1035.1788 34.5917 2.4428
1630.00 1486.7381 1035.2280 34.5927 2.4239
1640.00 1486.8376 1035.2769 34.5936 2.4071
1650.00 1486.9437 1035.3256 34.5945 2.3918
1660.00 1487.0498 1035.3742 34.5954 2.3766
1670.00 1487.1558 1035.4229 34.5963 2.3613
1680.00 1487.2619 1035.4716 34.5973 2.3460
1690.00 1487.3680 1035.5202 34.5982 2.3307
1700.00 1487.4740 1035.5689 34.5991 2.3154
1710.00 1487.5801 1035.6176 34.6000 2.3002
1720.00 1487.6862 1035.6663 34.6009 2.2849
1730.00 1487.7922 1035.7149 34.6018 2.2696
1740.00 1487.8983 1035.7636 34.6027 2.2543
1750.00 1488.0044 1035.8123 34.6036 2.2390
1760.00 1488.1104 1035.8609 34.6045 2.2237
1770.00 1488.2234 1035.9093 34.6054 2.2100
1780.00 1488.3437 1035.9575 34.6062 2.1979
1790.00 1488.4639 1036.0056 34.6070 2.1858
1800.00 1488.5842 1036.0537 34.6078 2.1737
1810.00 1488.7044 1036.1019 34.6086 2.1616
1820.00 1488.8247 1036.1500 34.6094 2.1495
1830.00 1488.9449 1036.1981 34.6102 2.1374
1840.00 1489.0652 1036.2462 34.6110 2.1253
1850.00 1489.1855 1036.2944 34.6118 2.1132
1860.00 1489.3057 1036.3425 34.6126 2.1011
1870.00 1489.4260 1036.3906 34.6134 2.0890
1880.00 1489.5462 1036.4388 34.6142 2.0769
1890.00 1489.6665 1036.4869 34.6150 2.0648
1900.00 1489.7868 1036.5350 34.6158 2.0527
1910.00 1489.9070 1036.5831 34.6167 2.0406
1920.00 1490.0340 1036.6310 34.6174 2.0300
1930.00 1490.1658 1036.6786 34.6181 2.0204
1940.00 1490.2976 1036.7263 34.6188 2.0108
1950.00 1490.4294 1036.7739 34.6194 2.0012
1960.00 1490.5611 1036.8216 34.6201 1.9916
1970.00 1490.6929 1036.8692 34.6208 1.9821
1980.00 1490.8247 1036.9169 34.6215 1.9725
1990.00 1490.9565 1036.9645 34.6222 1.9629
2000.00 1491.0882 1037.0121 34.6229 1.9533
2010.00 1491.2200 1037.0598 34.6235 1.9438
2020.00 1491.3518 1037.1074 34.6242 1.9342
2030.00 1491.4836 1037.1551 34.6249 1.9246
2040.00 1491.6154 1037.2027 34.6256 1.9150
2050.00 1491.7471 1037.2504 34.6263 1.9055
2060.00 1491.8789 1037.2980 34.6270 1.8959
2070.00 1492.0107 1037.3457 34.6277 1.8863
2080.00 1492.1425 1037.3933 34.6283 1.8767
2090.00 1492.2797 1037.4407 34.6290 1.8683
2100.00 1492.4206 1037.4879 34.6295 1.8607
2110.00 1492.5615 1037.5351 34.6301 1.8530
2120.00 1492.7024 1037.5823 34.6307 1.8454
2130.00 1492.8433 1037.6295 34.6312 1.8377
2140.00 1492.9843 1037.6768 34.6318 1.8301
2150.00 1493.1252 1037.7240 34.6324 1.8225
2160.00 1493.2661 1037.7712 34.6329 1.8148
2170.00 1493.4070 1037.8184 34.6335 1.8072
2180.00 1493.5479 1037.8656 34.6341 1.7996
2190.00 1493.6888 1037.9128 34.6346 1.7919
2200.00 1493.8297 1037.9600 34.6352 1.7843
2210.00 1493.9706 1038.0073 34.6358 1.7767
2220.00 1494.1115 1038.0545 34.6363 1.7690
2230.00 1494.2524 1038.1017 34.6369 1.7614
2240.00 1494.3933 1038.1489 34.6375 1.7537
2250.00 1494.5343 1038.1961 34.6380 1.7461
2260.00 1494.6752 1038.2433 34.6386 1.7385
2270.00 1494.8161 1038.2905 34.6392 1.7308
2280.00 1494.9598 1038.3376 34.6397 1.7238
2290.00 1495.1081 1038.3844 34.6402 1.7176
2300.00 1495.2565 1038.4312 34.6406 1.7115
2310.00 1495.4048 1038.4781 34.6411 1.7054
2320.00 1495.5532 1038.5249 34.6416 1.6993
2330.00 1495.7015 1038.5717 34.6420 1.6932
2340.00 1495.8498 1038.6185 34.6425 1.6870
2350.00 1495.9982 1038.6653 34.6429 1.6809
2360.00 1496.1465 1038.7122 34.6434 1.6748
2370.00 1496.2949 1038.7590 34.6439 1.6687
2380.00 1496.4432 1038.8058 34.6443 1.6626
2390.00 1496.5915 1038.8526 34.6448 1.6564
2400.00 1496.7399 1038.8994 34.6453 1.6503
2410.00 1496.8882 1038.9463 34.6457 1.6442
2420.00 1497.0366 1038.9931 34.6462 1.6381
2430.00 1497.1849 1039.0399 34.6467 1.6320
2440.00 1497.3333 1039.0867 34.6471 1.6258
2450.00 1497.4816 1039.1335 34.6476 1.6197
2460.00 1497.6299 1039.1804 34.6480 1.6136
2470.00 1497.7783 1039.2272 34.6485 1.6075
2480.00 1497.9266 1039.2740 34.6490 1.6014
2490.00 1498.0750 1039.3208 34.6494 1.5952
2500.00 1498.2287 1039.3673 34.6498 1.5902
2510.00 1498.3833 1039.4138 34.6502 1.5853
2520.00 1498.5378 1039.4602 34.6506 1.5803
2530.00 1498.6924 1039.5067 34.6510 1.5754
2540.00 1498.8470 1039.5531 34.6513 1.5705
2550.00 1499.0015 1039.5996 34.6517 1.5656
2560.00 1499.1561 1039.6461 34.6521 1.5607
2570.00 1499.3106 1039.6925 34.6525 1.5558
2580.00 1499.4652 1039.7390 34.6529 1.5509
2590.00 1499.6197 1039.7854 34.6532 1.5459
2600.00 1499.7743 1039.8319 34.6536 1.5410
2610.00 1499.9288 1039.8783 34.6540 1.5361
2620.00 1500.0834 1039.9248 34.6544 1.5312
2630.00 1500.2379 1039.9713 34.6547 1.5263
2640.00 1500.3925 1040.0177 34.6551 1.5214
2650.00 1500.5470 1040.0642 34.6555 1.5164
2660.00 1500.7016 1040.1106 34.6559 1.5115
2670.00 1500.8562 1040.1571 34.6563 1.5066
2680.00 1501.0107 1040.2035 34.6566 1.5017
2690.00 1501.1653 1040.2500 34.6570 1.4968
2700.00 1501.3198 1040.2964 34.6574 1.4919
2710.00 1501.4744 1040.3429 34.6578 1.4870
2720.00 1501.6289 1040.3894 34.6582 1.4820
2730.00 1501.7839 1040.4358 34.6585 1.4772
2740.00 1501.9438 1040.4819 34.6588 1.4733
2750.00 1502.1037 1040.5280 34.6591 1.4693
2760.00 1502.2636 1040.5741 34.6595 1.4654
2770.00 1502.4235 1040.6202 34.6598 1.4615
2780.00 1502.5834 1040.6664 34.6601 1.4575
2790.00 1502.7433 1040.7125 34.6604 1.4536
2800.00 1502.9032 1040.7586 34.6607 1.4496
2810.00 1503.0631 1040.8047 34.6610 1.4457
2820.00 1503.2230 1040.8508 34.6613 1.4418
2830.00 1503.3829 1040.8969 34.6616 1.4378
2840.00 1503.5428 1040.9430 34.6619 1.4339
2850.00 1503.7027 1040.9891 34.6622 1.4300
2860.00 1503.8626 1041.0352 34.6626 1.4260
2870.00 1504.0225 1041.0814 34.6629 1.4221
2880.00 1504.1824 1041.1275 34.6632 1.4181
2890.00 1504.3423 1041.1736 34.6635 1.4142
2900.00 1504.5022 1041.2197 34.6638 1.4103
2910.00 1504.6621 1041.2658 34.6641 1.4063
2920.00 1504.8220 1041.3119 34.6644 1.4024
2930.00 1504.9819 1041.3580 34.6647 1.3985
2940.00 1505.1418 1041.4041 34.6650 1.3945
2950.00 1505.3017 1041.4503 34.6653 1.3906
2960.00 1505.4616 1041.4964 34.6657 1.3866
2970.00 1505.6215 1041.5425 34.6660 1.3827
2980.00 1505.7814 1041.5886 34.6663 1.3788
2990.00 1505.9413 1041.6347 34.6666 1.3748
3000.00 1506.1057 1041.6805 34.6668 1.3717
3010.00 1506.2701 1041.7263 34.6671 1.3685
3020.00 1506.4346 1041.7721 34.6674 1.3653
3030.00 1506.5991 1041.8178 34.6676 1.3622
3040.00 1506.7636 1041.8636 34.6679 1.3590
3050.00 1506.9281 1041.9094 34.6681 1.3559
3060.00 1507.0926 1041.9552 34.6684 1.3527
3070.00 1507.2571 1042.0010 34.6687 1.3496
3080.00 1507.4216 1042.0467 34.6689 1.3464
3090.00 1507.5860 1042.0925 34.6692 1.3433
3100.00 1507.7505 1042.1383 34.6694 1.3401
3110.00 1507.9150 1042.1841 34.6697 1.3369
3120.00 1508.0795 1042.2299 34.6699 1.3338
3130.00 1508.2440 1042.2757 34.6702 1.3306
3140.00 1508.4085 1042.3214 34.6705 1.3275
3150.00 1508.5730 1042.3672 34.6707 1.3243
3160.00 1508.7375 1042.4130 34.6710 1.3212
3170.00 1508.9019 1042.4588 34.6712 1.3180
3180.00 1509.0664 1042.5046 34.6715 1.3148
3190.00 1509.2309 1042.5503 34.6718 1.3117
3200.00 1509.3954 1042.5961 34.6720 1.3085
3210.00 1509.5599 1042.6419 34.6723 1.3054
3220.00 1509.7244 1042.6877 34.6725 1.3022
3230.00 1509.8889 1042.7335 34.6728 1.2991
3240.00 1510.0534 1042.7793 34.6731 1.2959
3250.00 1510.2179 1042.8250 34.6733 1.2928
3260.00 1510.3823 1042.8708 34.6736 1.2896
3270.00 1510.5468 1042.9166 34.6738 1.2864
3280.00 1510.7136 1042.9622 34.6741 1.2836
3290.00 1510.8820 1043.0077 34.6743 1.2811
3300.00 1511.0504 1043.0531 34.6745 1.2785
3310.00 1511.2188 1043.0986 34.6747 1.2760
3320.00 1511.3872 1043.1440 34.6749 1.2735
3330.00 1511.5556 1043.1895 34.6752 1.2709
3340.00 1511.7241 1043.2350 34.6754 1.2684
3350.00 1511.8925 1043.2804 34.6756 1.2658
3360.00 1512.0609 1043.3259 34.6758 1.2633
3370.00 1512.2293 1043.3713 34.6760 1.2607
3380.00 1512.3977 1043.4168 34.6763 1.2582
3390.00 1512.5661 1043.4623 34.6765 1.2556
3400.00 1512.7345 1043.5077 34.6767 1.2531
3410.00 1512.9030 1043.5532 34.6769 1.2505
3420.00 1513.0714 1043.5986 34.6771 1.2480
3430.00 1513.2398 1043.6441 34.6774 1.2455
3440.00 1513.4082 1043.6896 34.6776 1.2429
3450.00 1513.5766 1043.7350 34.6778 1.2404
3460.00 1513.7450 1043.7805 34.6780 1.2378
3470.00 1513.9135 1043.8259 34.6782 1.2353
3480.00 1514.0819 1043.8714 34.6785 1.2327
3490.00 1514.2503 1043.9169 34.6787 1.2302
3500.00 1514.4187 1043.9623 34.6789 1.2276
3510.00 1514.5871 1044.0078 34.6791 1.2251
3520.00 1514.7555 1044.0532 34.6793 1.2225
3530.00 1514.9239 1044.0987 34.6796 1.2200
3540.00 1515.0924 1044.1442 34.6798 1.2175
3550.00 1515.2608 1044.1896 34.6800 1.2149
3560.00 1515.4292 1044.2351 34.6802 1.2124
3570.00 1515.5976 1044.2805 34.6804 1.2098
3580.00 1515.7660 1044.3260 34.6807 1.2073
3590.00 1515.9377 1044.3712 34.6808 1.2052
3600.00 1516.1099 1044.4163 34.6810 1.2032
3610.00 1516.2821 1044.4614 34.6812 1.2012
3620.00 1516.4543 1044.5065 34.6814 1.1993
3630.00 1516.6264 1044.5516 34.6816 1.1973
3640.00 1516.7986 1044.5968 34.6818 1.1953
3650.00 1516.9708 1044.6419 34.6820 1.1933
3660.00 1517.1430 1044.6870 34.6821 1.1913
3670.00 1517.3151 1044.7321 34.6823 1.1893
3680.00 1517.4873 1044.7772 34.6825 1.1874
3690.00 1517.6595 1044.8224 34.6827 1.1854
3700.00 1517.8317 1044.8675 34.6829 1.1834
3710.00 1518.0039 1044.9126 34.6831 1.1814
3720.00 1518.1760 1044.9577 34.6832 1.1794
3730.00 1518.3482 1045.0028 34.6834 1.1774
3740.00 1518.5204 1045.0480 34.6836 1.1754
3750.00 1518.6926 1045.0931 34.6838 1.1735
3760.00 1518.8647 1045.1382 34.6840 1.1715
3770.00 1519.0369 1045.1833 34.6842 1.1695
3780.00 1519.2091 1045.2285 34.6843 1.1675
3790.00 1519.3813 1045.2736 34.6845 1.1655
3800.00 1519.5535 1045.3187 34.6847 1.1635
3810.00 1519.7256 1045.3638 34.6849 1.1615
3820.00 1519.8978 1045.4089 34.6851 1.1596
3830.00 1520.0700 1045.4541 34.6853 1.1576
3840.00 1520.2422 1045.4992 34.6854 1.1556
3850.00 1520.4144 1045.5443 34.6856 1.1536
3860.00 1520.5865 1045.5894 34.6858 1.1516
3870.00 1520.7587 1045.6345 34.6860 1.1496
3880.00 1520.9309 1045.6797 34.6862 1.1476
3890.00 1521.1031 1045.7248 34.6864 1.1457
3900.00 1521.2752 1045.7699 34.6865 1.1437
3910.00 1521.4474 1045.8150 34.6867 1.1417
3920.00 1521.6222 1045.8599 34.6869 1.1400
3930.00 1521.7973 1045.9047 34.6870 1.1384
3940.00 1521.9725 1045.9494 34.6872 1.1368
3950.00 1522.1476 1045.9942 34.6873 1.1352
3960.00 1522.3228 1046.0390 34.6875 1.1336
3970.00 1522.4979 1046.0838 34.6876 1.1320
3980.00 1522.6731 1046.1286 34.6878 1.1303
3990.00 1522.8482 1046.1734 34.6880 1.1287
4000.00 1523.0233 1046.2182 34.6881 1.1271
4010.00 1523.1985 1046.2630 34.6883 1.1255
4020.00 1523.3736 1046.3078 34.6884 1.1239
4030.00 1523.5488 1046.3526 34.6886 1.1223
4040.00 1523.7239 1046.3974 34.6887 1.1206
4050.00 1523.8991 1046.4422 34.6889 1.1190
4060.00 1524.0742 1046.4870 34.6890 1.1174
4070.00 1524.2493 1046.5318 34.6892 1.1158
4080.00 1524.4245 1046.5766 34.6893 1.1142
4090.00 1524.5996 1046.6214 34.6895 1.1126
4100.00 1524.7748 1046.6662 34.6896 1.1110
4110.00 1524.9499 1046.7110 34.6898 1.1093
4120.00 1525.1251 1046.7558 34.6900 1.1077
4130.00 1525.3002 1046.8005 34.6901 1.1061
4140.00 1525.4753 1046.8453 34.6903 1.1045
4150.00 1525.6505 1046.8901 34.6904 1.1029
4160.00 1525.8256 1046.9349 34.6906 1.1013
4170.00 1526.0008 1046.9797 34.6907 1.0997
4180.00 1526.1759 1047.0245 34.6909 1.0980
4190.00 1526.3511 1047.0693 34.6910 1.0964
4200.00 1526.5262 1047.1141 34.6912 1.0948
4210.00 1526.7013 1047.1589 34.6913 1.0932
4220.00 1526.8765 1047.2037 34.6915 1.0916
4230.00 1527.0516 1047.2485 34.6916 1.0900
4240.00 1527.2268 1047.2933 34.6918 1.0883
4250.00 1527.4019 1047.3381 34.6920 1.0867
4260.00 1527.5771 1047.3829 34.6921 1.0851
4270.00 1527.7523 1047.4276 34.6923 1.0833
4280.00 1527.9275 1047.4722 34.6924 1.0814
4290.00 1528.1028 1047.5168 34.6926 1.0795
4300.00 1528.2780 1047.5614 34.6928 1.0776
4310.00 1528.4533 1047.6060 34.6929 1.0757
4320.00 1528.6285 1047.6506 34.6931 1.0738
4330.00 1528.8038 1047.6952 34.6933 1.0719
4340.00 1528.9791 1047.7398 34.6934 1.0700
4350.00 1529.1543 1047.7844 34.6936 1.0681
4360.00 1529.3296 1047.8290 34.6938 1.0662
4370.00 1529.5048 1047.8736 34.6939 1.0643
4380.00 1529.6801 1047.9181 34.6941 1.0624
4390.00 1529.8553 1047.9627 34.6943 1.0605
4400.00 1530.0306 1048.0073 34.6944 1.0586
4410.00 1530.2058 1048.0519 34.6946 1.0567
4420.00 1530.3811 1048.0965 34.6947 1.0548
4430.00 1530.5564 1048.1411 34.6949 1.0529
4440.00 1530.7316 1048.1857 34.6951 1.0510
4450.00 1530.9069 1048.2303 34.6952 1.0491
4460.00 1531.0821 1048.2749 34.6954 1.0472
4470.00 1531.2574 1048.3195 34.6956 1.0453
4480.00 1531.4326 1048.3641 34.6957 1.0434
4490.00 1531.6079 1048.4087 34.6959 1.0415
4500.00 1531.7831 1048.4533 34.6961 1.0396
4510.00 1531.9584 1048.4979 34.6962 1.0377
4520.00 1532.1337 1048.5425 34.6964 1.0358
4530.00 1532.3089 1048.5871 34.6966 1.0339
4540.00 1532.4842 1048.6317 34.6967 1.0320
4550.00 1532.6594 1048.6763 34.6969 1.0301
4560.00 1532.8347 1048.7209 34.6971 1.0282
4570.00 1533.0099 1048.7655 34.6972 1.0263
4580.00 1533.1852 1048.8101 34.6974 1.0244
4590.00 1533.3604 1048.8547 34.6976 1.0225
4600.00 1533.5357 1048.8993 34.6977 1.0206
4610.00 1533.7110 1048.9439 34.6979 1.0187
4620.00 1533.8862 1048.9885 34.6981 1.0168
4630.00 1534.0615 1049.0331 34.6982 1.0149
4640.00 1534.2367 1049.0777 34.6984 1.0130
4650.00 1534.4214 1049.1216 34.6984 1.0130
4660.00 1534.6063 1049.1654 34.6984 1.0130
4670.00 1534.7911 1049.2093 34.6984 1.0130
4680.00 1534.9760 1049.2531 34.6984 1.0130
4690.00 1535.1609 1049.2969 34.6984 1.0130
4700.00 1535.3458 1049.3408 34.6984 1.0130
4710.00 1535.5307 1049.3846 34.6984 1.0130
4720.00 1535.7156 1049.4284 34.6984 1.0130
4730.00 1535.9005 1049.4723 34.6984 1.0130
4740.00 1536.0853 1049.5161 34.6984 1.0130
4750.00 1536.2702 1049.5600 34.6984 1.0130
4760.00 1536.4551 1049.6038 34.6984 1.0130
4770.00 1536.6400 1049.6476 34.6984 1.0130
4780.00 1536.8249 1049.6915 34.6984 1.0130
4790.00 1537.0098 1049.7353 34.6984 1.0130
4800.00 1537.1947 1049.7791 34.6984 1.0130
4810.00 1537.3795 1049.8230 34.6984 1.0130
4820.00 1537.5644 1049.8668 34.6984 1.0130
4830.00 1537.7493 1049.9107 34.6984 1.0130
4840.00 1537.9342 1049.9545 34.6984 1.0130
4850.00 1538.1191 1049.9983 34.6984 1.0130
4860.00 1538.3040 1050.0422 34.6984 1.0130
4870.00 1538.4889 1050.0860 34.6984 1.0130
4880.00 1538.6738 1050.1298 34.6984 1.0130
4890.00 1538.8586 1050.1737 34.6984 1.0130
4900.00 1539.0435 1050.2175 34.6984 1.0130
4910.00 1539.2284 1050.2614 34.6984 1.0130
4920.00 1539.4133 1050.3052 34.6984 1.0130
4930.00 1539.5982 1050.3490 34.6984 1.0130
4940.00 1539.7831 1050.3929 34.6984 1.0130
4950.00 1539.9680 1050.4367 34.6984 1.0130
4960.00 1540.1528 1050.4805 34.6984 1.0130
4970.00 1540.3377 1050.5244 34.6984 1.0130
4980.00 1540.5226 1050.5682 34.6984 1.0130
4990.00 1540.7075 1050.6121 34.6984 1.0130
5000.00 1540.8924 1050.6559 34.6984 1.0130
5010.00 1541.0773 1050.6997 34.6984 1.0130
5020.00 1541.2622 1050.7436 34.6984 1.0130
5030.00 1541.4470 1050.7874 34.6984 1.0130
5040.00 nan nan nan nan
5050.00 nan nan nan nan
5060.00 nan nan nan nan
5070.00 nan nan nan nan
5080.00 nan nan nan nan
5090.00 nan nan nan nan
5100.00 nan nan nan nan
5110.00 nan nan nan nan
5120.00 nan nan nan nan
5130.00 nan nan nan nan
5140.00 nan nan nan nan
5150.00 nan nan nan nan
5160.00 nan nan nan nan
5170.00 nan nan nan nan
5180.00 nan nan nan nan
5190.00 nan nan nan nan
5200.00 nan nan nan nan
5210.00 nan nan nan nan
5220.00 nan nan nan nan
5230.00 nan nan nan nan
5240.00 nan nan nan nan
5250.00 nan nan nan nan
5260.00 nan nan nan nan
5270.00 nan nan nan nan
5280.00 nan nan nan nan
5290.00 nan nan nan nan
5300.00 nan nan nan nan
5310.00 nan nan nan nan
5320.00 nan nan nan nan
5330.00 nan nan nan nan
5340.00 nan nan nan nan
5350.00 nan nan nan nan
5360.00 nan nan nan nan
5370.00 nan nan nan nan
5380.00 nan nan nan nan
5390.00 nan nan nan nan
5400.00 nan nan nan nan
5410.00 nan nan nan nan
5420.00 nan nan nan nan
5430.00 nan nan nan nan
5440.00 nan nan nan nan
5450.00 nan nan nan nan
5460.00 nan nan nan nan
5470.00 nan nan nan nan
5480.00 nan nan nan nan
5490.00 nan nan nan nan
5500.00 nan nan nan nan
5510.00 nan nan nan nan
5520.00 nan nan nan nan
5530.00 nan nan nan nan
5540.00 nan nan nan nan
5550.00 nan nan nan nan
5560.00 nan nan nan nan
5570.00 nan nan nan nan
5580.00 nan nan nan nan
5590.00 nan nan nan nan
5600.00 nan nan nan nan
5610.00 nan nan nan nan
5620.00 nan nan nan nan
5630.00 nan nan nan nan
5640.00 nan nan nan nan
5650.00 nan nan nan nan
5660.00 nan nan nan nan
5670.00 nan nan nan nan
5680.00 nan nan nan nan
5690.00 nan nan nan nan
5700.00 nan nan nan nan
5710.00 nan nan nan nan
5720.00 nan nan nan nan
5730.00 nan nan nan nan
5740.00 nan nan nan nan
5750.00 nan nan nan nan
5760.00 nan nan nan nan
5770.00 nan nan nan nan
5780.00 nan nan nan nan
5790.00 nan nan nan nan
5800.00 nan nan nan nan
5810.00 nan nan nan nan
5820.00 nan nan nan nan
5830.00 nan nan nan nan
5840.00 nan nan nan nan
5850.00 nan nan nan nan
5860.00 nan nan nan nan
5870.00 nan nan nan nan
5880.00 nan nan nan nan
5890.00 nan nan nan nan
5900.00 nan nan nan nan
5910.00 nan nan nan nan
5920.00 nan nan nan nan
5930.00 nan nan nan nan
5940.00 nan nan nan nan
5950.00 nan nan nan nan
5960.00 nan nan nan nan
5970.00 nan nan nan nan
5980.00 nan nan nan nan
5990.00 nan nan nan nan
6000.00 nan nan nan nan
6010.00 nan nan nan nan
6020.00 nan nan nan nan
6030.00 nan nan nan nan
6040.00 nan nan nan nan
6050.00 nan nan nan nan
6060.00 nan nan nan nan
6070.00 nan nan nan nan
6080.00 nan nan nan nan
6090.00 nan nan nan nan
6100.00 nan nan nan nan
6110.00 nan nan nan nan
6120.00 nan nan nan nan
6130.00 nan nan nan nan
6140.00 nan nan nan nan
6150.00 nan nan nan nan
6160.00 nan nan nan nan
6170.00 nan nan nan nan
6180.00 nan nan nan nan
6190.00 nan nan nan nan
6200.00 nan nan nan nan
6210.00 nan nan nan nan
6220.00 nan nan nan nan
6230.00 nan nan nan nan
6240.00 nan nan nan nan
6250.00 nan nan nan nan
6260.00 nan nan nan nan
6270.00 nan nan nan nan
6280.00 nan nan nan nan
6290.00 nan nan nan nan
6300.00 nan nan nan nan
6310.00 nan nan nan nan
6320.00 nan nan nan nan
6330.00 nan nan nan nan
6340.00 nan nan nan nan
6350.00 nan nan nan nan
6360.00 nan nan nan nan
6370.00 nan nan nan nan
6380.00 nan nan nan nan
6390.00 nan nan nan nan
6400.00 nan nan nan nan
6410.00 nan nan nan nan
6420.00 nan nan nan nan
6430.00 nan nan nan nan
6440.00 nan nan nan nan
6450.00 nan nan nan nan
6460.00 nan nan nan nan
6470.00 nan nan nan nan
6480.00 nan nan nan nan
6490.00 nan nan nan nan
6500.00 nan nan nan nan
6510.00 nan nan nan nan
6520.00 nan nan nan nan
6530.00 nan nan nan nan
6540.00 nan nan nan nan
6550.00 nan nan nan nan
6560.00 nan nan nan nan
6570.00 nan nan nan nan
6580.00 nan nan nan nan
6590.00 nan nan nan nan
6600.00 nan nan nan nan
6610.00 nan nan nan nan
6620.00 nan nan nan nan
6630.00 nan nan nan nan
6640.00 nan nan nan nan
6650.00 nan nan nan nan
6660.00 nan nan nan nan
6670.00 nan nan nan nan
6680.00 nan nan nan nan
6690.00 nan nan nan nan
6700.00 nan nan nan nan
6710.00 nan nan nan nan
6720.00 nan nan nan nan
6730.00 nan nan nan nan
6740.00 nan nan nan nan
6750.00 nan nan nan nan
6760.00 nan nan nan nan
6770.00 nan nan nan nan
6780.00 nan nan nan nan
6790.00 nan nan nan nan
6800.00 nan nan nan nan
6810.00 nan nan nan nan
6820.00 nan nan nan nan
6830.00 nan nan nan nan
6840.00 nan nan nan nan
6850.00 nan nan nan nan
6860.00 nan nan nan nan
6870.00 nan nan nan nan
6880.00 nan nan nan nan
6890.00 nan nan nan nan
6900.00 nan nan nan nan
6910.00 nan nan nan nan
6920.00 nan nan nan nan
6930.00 nan nan nan nan
6940.00 nan nan nan nan
6950.00 nan nan nan nan
6960.00 nan nan nan nan
6970.00 nan nan nan nan
6980.00 nan nan nan nan
6990.00 nan nan nan nan
7000.00 nan nan nan nan
7010.00 nan nan nan nan
7020.00 nan nan nan nan
7030.00 nan nan nan nan
7040.00 nan nan nan nan
7050.00 nan nan nan nan
7060.00 nan nan nan nan
7070.00 nan nan nan nan
7080.00 nan nan nan nan
7090.00 nan nan nan nan
7100.00 nan nan nan nan
7110.00 nan nan nan nan
7120.00 nan nan nan nan
7130.00 nan nan nan nan
7140.00 nan nan nan nan
7150.00 nan nan nan nan
7160.00 nan nan nan nan
7170.00 nan nan nan nan
7180.00 nan nan nan nan
7190.00 nan nan nan nan
7200.00 nan nan nan nan
7210.00 nan nan nan nan
7220.00 nan nan nan nan
7230.00 nan nan nan nan
7240.00 nan nan nan nan
7250.00 nan nan nan nan
7260.00 nan nan nan nan
7270.00 nan nan nan nan
7280.00 nan nan nan nan
7290.00 nan nan nan nan
7300.00 nan nan nan nan
7310.00 nan nan nan nan
7320.00 nan nan nan nan
7330.00 nan nan nan nan
7340.00 nan nan nan nan
7350.00 nan nan nan nan
7360.00 nan nan nan nan
7370.00 nan nan nan nan
7380.00 nan nan nan nan
7390.00 nan nan nan nan
7400.00 nan nan nan nan
7410.00 nan nan nan nan
7420.00 nan nan nan nan
7430.00 nan nan nan nan
7440.00 nan nan nan nan
7450.00 nan nan nan nan
7460.00 nan nan nan nan
7470.00 nan nan nan nan
7480.00 nan nan nan nan
7490.00 nan nan nan nan
7500.00 nan nan nan nan
7510.00 nan nan nan nan
7520.00 nan nan nan nan
7530.00 nan nan nan nan
7540.00 nan nan nan nan
7550.00 nan nan nan nan
7560.00 nan nan nan nan
7570.00 nan nan nan nan
7580.00 nan nan nan nan
7590.00 nan nan nan nan
7600.00 nan nan nan nan
7610.00 nan nan nan nan
7620.00 nan nan nan nan
7630.00 nan nan nan nan
7640.00 nan nan nan nan
7650.00 nan nan nan nan
7660.00 nan nan nan nan
7670.00 nan nan nan nan
7680.00 nan nan nan nan
7690.00 nan nan nan nan
7700.00 nan nan nan nan
7710.00 nan nan nan nan
7720.00 nan nan nan nan
7730.00 nan nan nan nan
7740.00 nan nan nan nan
7750.00 nan nan nan nan
7760.00 nan nan nan nan
7770.00 nan nan nan nan
7780.00 nan nan nan nan
7790.00 nan nan nan nan
7800.00 nan nan nan nan
7810.00 nan nan nan nan
7820.00 nan nan nan nan
7830.00 nan nan nan nan
7840.00 nan nan nan nan
7850.00 nan nan nan nan
7860.00 nan nan nan nan
7870.00 nan nan nan nan
7880.00 nan nan nan nan
7890.00 nan nan nan nan
7900.00 nan nan nan nan
7910.00 nan nan nan nan
7920.00 nan nan nan nan
7930.00 nan nan nan nan
7940.00 nan nan nan nan
7950.00 nan nan nan nan
7960.00 nan nan nan nan
7970.00 nan nan nan nan
7980.00 nan nan nan nan
7990.00 nan nan nan nan
