# Averages over distance (i) for each depth (k):
# Depth(m) Speed(m/s) Density(kg/m^3) Salt PSU Theta(degC)
0.00 1543.2237 1022.6286 35.5829 28.6215
10.00 1543.3676 1022.6761 35.5833 28.6088
20.00 1543.5136 1022.7242 35.5847 28.5966
30.00 1543.6563 1022.7764 35.5899 28.5808
40.00 1543.7763 1022.8380 35.6015 28.5510
50.00 1543.8514 1022.9127 35.6197 28.4967
60.00 1543.8684 1023.0013 35.6432 28.4128
70.00 1543.8259 1023.1048 35.6731 28.2981
80.00 1543.7154 1023.2282 35.7137 28.1468
90.00 1543.5060 1023.3823 35.7716 27.9417
100.00 1543.1205 1023.5837 35.8534 27.6454
110.00 1542.4204 1023.8511 35.9587 27.1984
120.00 1541.3245 1024.1772 36.0708 26.5792
130.00 1539.9414 1024.5170 36.1611 25.8568
140.00 1538.4611 1024.8263 36.2117 25.1258
150.00 1536.9253 1025.0716 36.1962 24.4242
160.00 1535.1588 1025.3033 36.1440 23.6619
170.00 1533.2057 1025.5238 36.0621 22.8507
180.00 1530.6752 1025.7523 35.9413 21.8723
190.00 1527.9623 1025.9832 35.8083 20.8412
200.00 1525.0272 1026.2098 35.6735 19.7737
210.00 1521.8921 1026.4325 35.5371 18.6734
220.00 1518.7571 1026.6552 35.4008 17.5731
230.00 1515.9322 1026.8434 35.2938 16.6267
240.00 1513.2226 1027.0188 35.1977 15.7375
250.00 1510.5130 1027.1942 35.1017 14.8483
260.00 1508.0340 1027.3563 35.0171 14.0398
270.00 1506.2356 1027.4790 34.9664 13.4697
280.00 1504.4372 1027.6016 34.9157 12.8996
290.00 1502.6388 1027.7243 34.8650 12.3294
300.00 1500.8463 1027.8467 34.8145 11.7611
310.00 1499.8827 1027.9339 34.7931 11.4470
320.00 1498.9191 1028.0210 34.7718 11.1330
330.00 1497.9555 1028.1082 34.7504 10.8189
340.00 1496.9919 1028.1953 34.7291 10.5048
350.00 1496.0283 1028.2825 34.7077 10.1908
360.00 1495.5011 1028.3533 34.6980 10.0025
370.00 1495.0058 1028.4229 34.6891 9.8233
380.00 1494.5105 1028.4925 34.6802 9.6442
390.00 1494.0152 1028.5621 34.6712 9.4651
400.00 1493.5199 1028.6318 34.6623 9.2859
410.00 1493.0257 1028.7013 34.6534 9.1071
420.00 1492.6887 1028.7644 34.6477 8.9738
430.00 1492.3516 1028.8275 34.6420 8.8404
440.00 1492.0145 1028.8906 34.6363 8.7070
450.00 1491.6775 1028.9537 34.6306 8.5736
460.00 1491.3404 1029.0168 34.6248 8.4403
470.00 1491.0033 1029.0799 34.6191 8.3069
480.00 1490.6840 1029.1422 34.6138 8.1788
490.00 1490.4170 1029.2022 34.6094 8.0663
500.00 1490.1500 1029.2622 34.6050 7.9538
510.00 1489.8831 1029.3221 34.6006 7.8413
520.00 1489.6161 1029.3821 34.5962 7.7288
530.00 1489.3491 1029.4421 34.5918 7.6163
540.00 1489.0821 1029.5020 34.5874 7.5038
550.00 1488.8151 1029.5620 34.5831 7.3913
560.00 1488.5962 1029.6202 34.5797 7.2925
570.00 1488.3950 1029.6777 34.5766 7.1987
580.00 1488.1939 1029.7353 34.5736 7.1050
590.00 1487.9928 1029.7928 34.5706 7.0112
600.00 1487.7917 1029.8504 34.5675 6.9174
610.00 1487.5906 1029.9079 34.5645 6.8237
620.00 1487.3895 1029.9655 34.5615 6.7299
630.00 1487.1884 1030.0230 34.5584 6.6362
640.00 1487.0199 1030.0796 34.5561 6.5513
650.00 1486.8809 1030.1353 34.5544 6.4744
660.00 1486.7418 1030.1910 34.5527 6.3975
670.00 1486.6027 1030.2467 34.5510 6.3206
680.00 1486.4636 1030.3023 34.5493 6.2438
690.00 1486.3245 1030.3580 34.5475 6.1669
700.00 1486.1854 1030.4137 34.5458 6.0900
710.00 1486.0463 1030.4694 34.5441 6.0131
720.00 1485.9072 1030.5251 34.5424 5.9362
730.00 1485.8074 1030.5798 34.5415 5.8697
740.00 1485.7199 1030.6341 34.5409 5.8064
750.00 1485.6325 1030.6884 34.5403 5.7432
760.00 1485.5450 1030.7428 34.5396 5.6799
770.00 1485.4576 1030.7971 34.5390 5.6167
780.00 1485.3701 1030.8514 34.5384 5.5534
790.00 1485.2827 1030.9058 34.5377 5.4902
800.00 1485.1952 1030.9601 34.5371 5.4269
810.00 1485.1077 1031.0144 34.5365 5.3636
820.00 1485.0421 1031.0682 34.5363 5.3060
830.00 1484.9941 1031.1216 34.5364 5.2530
840.00 1484.9461 1031.1749 34.5365 5.2000
850.00 1484.8981 1031.2283 34.5366 5.1470
860.00 1484.8502 1031.2816 34.5367 5.0939
870.00 1484.8022 1031.3350 34.5369 5.0409
880.00 1484.7542 1031.3883 34.5370 4.9879
890.00 1484.7062 1031.4416 34.5371 4.9348
900.00 1484.6582 1031.4950 34.5372 4.8818
910.00 1484.6110 1031.5483 34.5373 4.8290
920.00 1484.5925 1031.6009 34.5379 4.7835
930.00 1484.5741 1031.6534 34.5385 4.7381
940.00 1484.5556 1031.7060 34.5390 4.6926
950.00 1484.5372 1031.7586 34.5396 4.6471
960.00 1484.5188 1031.8112 34.5402 4.6017
970.00 1484.5003 1031.8637 34.5407 4.5562
980.00 1484.4819 1031.9163 34.5413 4.5107
990.00 1484.4634 1031.9689 34.5419 4.4653
1000.00 1484.4450 1032.0214 34.5424 4.4198
1010.00 1484.4331 1032.0738 34.5431 4.3760
1020.00 1484.4375 1032.1257 34.5439 4.3364
1030.00 1484.4420 1032.1777 34.5447 4.2967
1040.00 1484.4465 1032.2296 34.5455 4.2570
1050.00 1484.4509 1032.2815 34.5463 4.2174
1060.00 1484.4554 1032.3335 34.5472 4.1777
1070.00 1484.4598 1032.3854 34.5480 4.1381
1080.00 1484.4643 1032.4373 34.5488 4.0984
1090.00 1484.4688 1032.4893 34.5496 4.0587
1100.00 1484.4732 1032.5412 34.5505 4.0191
1110.00 1484.4854 1032.5929 34.5513 3.9813
1120.00 1484.5085 1032.6443 34.5523 3.9464
1130.00 1484.5317 1032.6957 34.5533 3.9114
1140.00 1484.5549 1032.7471 34.5543 3.8764
1150.00 1484.5781 1032.7985 34.5553 3.8414
1160.00 1484.6012 1032.8499 34.5563 3.8064
1170.00 1484.6244 1032.9013 34.5572 3.7714
1180.00 1484.6476 1032.9527 34.5582 3.7364
1190.00 1484.6708 1033.0040 34.5592 3.7015
1200.00 1484.6939 1033.0554 34.5602 3.6665
1210.00 1484.7244 1033.1066 34.5612 3.6333
1220.00 1484.7640 1033.1576 34.5623 3.6023
1230.00 1484.8036 1033.2085 34.5634 3.5714
1240.00 1484.8432 1033.2594 34.5645 3.5404
1250.00 1484.8828 1033.3103 34.5656 3.5095
1260.00 1484.9224 1033.3612 34.5667 3.4785
1270.00 1484.9620 1033.4122 34.5678 3.4476
1280.00 1485.0016 1033.4631 34.5689 3.4166
1290.00 1485.0412 1033.5140 34.5700 3.3856
1300.00 1485.0808 1033.5649 34.5711 3.3547
1310.00 1485.1263 1033.6157 34.5722 3.3251
1320.00 1485.1813 1033.6662 34.5733 3.2979
1330.00 1485.2364 1033.7166 34.5745 3.2707
1340.00 1485.2914 1033.7671 34.5757 3.2434
1350.00 1485.3464 1033.8176 34.5768 3.2162
1360.00 1485.4015 1033.8680 34.5780 3.1889
1370.00 1485.4565 1033.9185 34.5792 3.1617
1380.00 1485.5115 1033.9690 34.5803 3.1345
1390.00 1485.5666 1034.0195 34.5815 3.1072
1400.00 1485.6216 1034.0699 34.5826 3.0800
1410.00 1485.6780 1034.1204 34.5838 3.0531
1420.00 1485.7485 1034.1703 34.5850 3.0295
1430.00 1485.8191 1034.2203 34.5861 3.0059
1440.00 1485.8896 1034.2703 34.5873 2.9824
1450.00 1485.9602 1034.3202 34.5885 2.9588
1460.00 1486.0308 1034.3702 34.5896 2.9353
1470.00 1486.1013 1034.4202 34.5908 2.9117
1480.00 1486.1719 1034.4702 34.5920 2.8881
1490.00 1486.2425 1034.5201 34.5931 2.8646
1500.00 1486.3130 1034.5701 34.5943 2.8410
1510.00 1486.3836 1034.6201 34.5955 2.8174
1520.00 1486.4588 1034.6699 34.5966 2.7950
1530.00 1486.5453 1034.7193 34.5977 2.7751
1540.00 1486.6318 1034.7687 34.5988 2.7553
1550.00 1486.7184 1034.8181 34.5999 2.7355
1560.00 1486.8049 1034.8675 34.6010 2.7156
1570.00 1486.8914 1034.9169 34.6021 2.6958
1580.00 1486.9779 1034.9663 34.6032 2.6760
1590.00 1487.0644 1035.0157 34.6043 2.6561
1600.00 1487.1510 1035.0651 34.6054 2.6363
1610.00 1487.2375 1035.1145 34.6065 2.6165
1620.00 1487.3240 1035.1639 34.6076 2.5966
1630.00 1487.4105 1035.2133 34.6087 2.5768
1640.00 1487.5062 1035.2623 34.6097 2.5591
1650.00 1487.6083 1035.3111 34.6107 2.5429
1660.00 1487.7105 1035.3599 34.6116 2.5266
1670.00 1487.8127 1035.4088 34.6126 2.5104
1680.00 1487.9149 1035.4576 34.6136 2.4942
1690.00 1488.0170 1035.5064 34.6145 2.4779
1700.00 1488.1192 1035.5552 34.6155 2.4617
1710.00 1488.2214 1035.6040 34.6165 2.4455
1720.00 1488.3236 1035.6528 34.6174 2.4293
1730.00 1488.4258 1035.7016 34.6184 2.4130
1740.00 1488.5279 1035.7504 34.6194 2.3968
1750.00 1488.6301 1035.7992 34.6203 2.3806
1760.00 1488.7323 1035.8480 34.6213 2.3644
1770.00 1488.8414 1035.8965 34.6222 2.3497
1780.00 1488.9578 1035.9447 34.6230 2.3367
1790.00 1489.0742 1035.9929 34.6238 2.3237
1800.00 1489.1906 1036.0412 34.6246 2.3107
1810.00 1489.3070 1036.0894 34.6254 2.2977
1820.00 1489.4234 1036.1376 34.6262 2.2847
1830.00 1489.5398 1036.1858 34.6271 2.2717
1840.00 1489.6562 1036.2340 34.6279 2.2587
1850.00 1489.7726 1036.2822 34.6287 2.2457
1860.00 1489.8890 1036.3305 34.6295 2.2327
1870.00 1490.0054 1036.3787 34.6303 2.2197
1880.00 1490.1218 1036.4269 34.6311 2.2066
1890.00 1490.2381 1036.4751 34.6319 2.1936
1900.00 1490.3545 1036.5233 34.6327 2.1806
1910.00 1490.4709 1036.5715 34.6335 2.1676
1920.00 1490.5944 1036.6195 34.6342 2.1562
1930.00 1490.7228 1036.6671 34.6349 2.1458
1940.00 1490.8512 1036.7148 34.6355 2.1355
1950.00 1490.9796 1036.7625 34.6362 2.1252
1960.00 1491.1080 1036.8102 34.6368 2.1148
1970.00 1491.2364 1036.8579 34.6375 2.1045
1980.00 1491.3648 1036.9056 34.6381 2.0941
1990.00 1491.4932 1036.9533 34.6388 2.0838
2000.00 1491.6216 1037.0009 34.6395 2.0735
2010.00 1491.7500 1037.0486 34.6401 2.0631
2020.00 1491.8784 1037.0963 34.6408 2.0528
2030.00 1492.0069 1037.1440 34.6414 2.0424
2040.00 1492.1353 1037.1917 34.6421 2.0321
2050.00 1492.2637 1037.2394 34.6427 2.0218
2060.00 1492.3921 1037.2871 34.6434 2.0114
2070.00 1492.5205 1037.3347 34.6440 2.0011
2080.00 1492.6489 1037.3824 34.6447 1.9907
2090.00 1492.7831 1037.4298 34.6452 1.9816
2100.00 1492.9212 1037.4771 34.6457 1.9734
2110.00 1493.0593 1037.5243 34.6463 1.9651
2120.00 1493.1974 1037.5715 34.6468 1.9569
2130.00 1493.3355 1037.6187 34.6473 1.9486
2140.00 1493.4736 1037.6659 34.6478 1.9404
2150.00 1493.6117 1037.7132 34.6483 1.9321
2160.00 1493.7497 1037.7604 34.6488 1.9238
2170.00 1493.8878 1037.8076 34.6493 1.9156
2180.00 1494.0259 1037.8548 34.6498 1.9073
2190.00 1494.1640 1037.9020 34.6504 1.8991
2200.00 1494.3021 1037.9493 34.6509 1.8908
2210.00 1494.4402 1037.9965 34.6514 1.8826
2220.00 1494.5783 1038.0437 34.6519 1.8743
2230.00 1494.7164 1038.0909 34.6524 1.8660
2240.00 1494.8545 1038.1381 34.6529 1.8578
2250.00 1494.9926 1038.1854 34.6534 1.8495
2260.00 1495.1307 1038.2326 34.6539 1.8413
2270.00 1495.2688 1038.2798 34.6545 1.8330
2280.00 1495.4098 1038.3269 34.6549 1.8254
2290.00 1495.5555 1038.3737 34.6553 1.8187
2300.00 1495.7013 1038.4205 34.6557 1.8120
2310.00 1495.8470 1038.4673 34.6561 1.8053
2320.00 1495.9927 1038.5141 34.6565 1.7986
2330.00 1496.1385 1038.5609 34.6569 1.7920
2340.00 1496.2842 1038.6077 34.6573 1.7853
2350.00 1496.4300 1038.6545 34.6577 1.7786
2360.00 1496.5757 1038.7014 34.6581 1.7719
2370.00 1496.7215 1038.7482 34.6585 1.7652
2380.00 1496.8672 1038.7950 34.6589 1.7586
2390.00 1497.0130 1038.8418 34.6593 1.7519
2400.00 1497.1587 1038.8886 34.6597 1.7452
2410.00 1497.3045 1038.9354 34.6601 1.7385
2420.00 1497.4502 1038.9822 34.6605 1.7319
2430.00 1497.5959 1039.0290 34.6609 1.7252
2440.00 1497.7417 1039.0759 34.6613 1.7185
2450.00 1497.8874 1039.1227 34.6617 1.7118
2460.00 1498.0332 1039.1695 34.6621 1.7051
2470.00 1498.1789 1039.2163 34.6625 1.6985
2480.00 1498.3247 1039.2631 34.6629 1.6918
2490.00 1498.4704 1039.3099 34.6633 1.6851
2500.00 1498.6216 1039.3564 34.6636 1.6795
2510.00 1498.7735 1039.4029 34.6639 1.6740
2520.00 1498.9255 1039.4493 34.6642 1.6686
2530.00 1499.0774 1039.4958 34.6645 1.6631
2540.00 1499.2294 1039.5422 34.6648 1.6576
2550.00 1499.3813 1039.5887 34.6651 1.6522
2560.00 1499.5333 1039.6351 34.6654 1.6467
2570.00 1499.6852 1039.6816 34.6657 1.6412
2580.00 1499.8371 1039.7280 34.6660 1.6358
2590.00 1499.9891 1039.7744 34.6663 1.6303
2600.00 1500.1410 1039.8209 34.6666 1.6248
2610.00 1500.2930 1039.8673 34.6669 1.6194
2620.00 1500.4449 1039.9138 34.6672 1.6139
2630.00 1500.5969 1039.9602 34.6675 1.6084
2640.00 1500.7488 1040.0067 34.6679 1.6030
2650.00 1500.9008 1040.0531 34.6682 1.5975
2660.00 1501.0527 1040.0996 34.6685 1.5920
2670.00 1501.2047 1040.1460 34.6688 1.5866
2680.00 1501.3566 1040.1925 34.6691 1.5811
2690.00 1501.5086 1040.2389 34.6694 1.5756
2700.00 1501.6605 1040.2854 34.6697 1.5702
2710.00 1501.8124 1040.3318 34.6700 1.5647
2720.00 1501.9644 1040.3783 34.6703 1.5592
2730.00 1502.1167 1040.4247 34.6706 1.5538
2740.00 1502.2736 1040.4708 34.6708 1.5492
2750.00 1502.4304 1040.5169 34.6711 1.5447
2760.00 1502.5873 1040.5631 34.6713 1.5401
2770.00 1502.7441 1040.6092 34.6716 1.5355
2780.00 1502.9010 1040.6553 34.6718 1.5309
2790.00 1503.0579 1040.7014 34.6721 1.5263
2800.00 1503.2147 1040.7476 34.6723 1.5218
2810.00 1503.3716 1040.7937 34.6725 1.5172
2820.00 1503.5285 1040.8398 34.6728 1.5126
2830.00 1503.6853 1040.8859 34.6730 1.5080
2840.00 1503.8422 1040.9321 34.6733 1.5034
2850.00 1503.9990 1040.9782 34.6735 1.4988
2860.00 1504.1559 1041.0243 34.6738 1.4943
2870.00 1504.3128 1041.0704 34.6740 1.4897
2880.00 1504.4696 1041.1166 34.6743 1.4851
2890.00 1504.6265 1041.1627 34.6745 1.4805
2900.00 1504.7833 1041.2088 34.6747 1.4759
2910.00 1504.9402 1041.2549 34.6750 1.4714
2920.00 1505.0971 1041.3011 34.6752 1.4668
2930.00 1505.2539 1041.3472 34.6755 1.4622
2940.00 1505.4108 1041.3933 34.6757 1.4576
2950.00 1505.5676 1041.4394 34.6760 1.4530
2960.00 1505.7245 1041.4856 34.6762 1.4485
2970.00 1505.8814 1041.5317 34.6764 1.4439
2980.00 1506.0382 1041.5778 34.6767 1.4393
2990.00 1506.1951 1041.6239 34.6769 1.4347
3000.00 1506.3558 1041.6698 34.6771 1.4308
3010.00 1506.5167 1041.7156 34.6773 1.4268
3020.00 1506.6775 1041.7614 34.6776 1.4229
3030.00 1506.8384 1041.8073 34.6778 1.4190
3040.00 1506.9992 1041.8531 34.6780 1.4150
3050.00 1507.1601 1041.8989 34.6782 1.4111
3060.00 1507.3209 1041.9448 34.6784 1.4072
3070.00 1507.4817 1041.9906 34.6786 1.4032
3080.00 1507.6426 1042.0364 34.6788 1.3993
3090.00 1507.8034 1042.0823 34.6790 1.3954
3100.00 1507.9643 1042.1281 34.6792 1.3914
3110.00 1508.1251 1042.1739 34.6794 1.3875
3120.00 1508.2860 1042.2198 34.6796 1.3836
3130.00 1508.4468 1042.2656 34.6798 1.3796
3140.00 1508.6077 1042.3114 34.6800 1.3757
3150.00 1508.7685 1042.3573 34.6802 1.3718
3160.00 1508.9293 1042.4031 34.6805 1.3678
3170.00 1509.0902 1042.4489 34.6807 1.3639
3180.00 1509.2510 1042.4948 34.6809 1.3600
3190.00 1509.4119 1042.5406 34.6811 1.3560
3200.00 1509.5727 1042.5864 34.6813 1.3521
3210.00 1509.7336 1042.6323 34.6815 1.3482
3220.00 1509.8944 1042.6781 34.6817 1.3442
3230.00 1510.0553 1042.7239 34.6819 1.3403
3240.00 1510.2161 1042.7698 34.6821 1.3364
3250.00 1510.3769 1042.8156 34.6823 1.3324
3260.00 1510.5378 1042.8614 34.6825 1.3285
3270.00 1510.6986 1042.9073 34.6827 1.3245
3280.00 1510.8610 1042.9530 34.6829 1.3208
3290.00 1511.0244 1042.9986 34.6831 1.3172
3300.00 1511.1879 1043.0442 34.6833 1.3135
3310.00 1511.3513 1043.0898 34.6835 1.3099
3320.00 1511.5148 1043.1354 34.6837 1.3063
3330.00 1511.6783 1043.1809 34.6839 1.3027
3340.00 1511.8417 1043.2265 34.6841 1.2991
3350.00 1512.0052 1043.2721 34.6843 1.2954
3360.00 1512.1686 1043.3177 34.6845 1.2918
3370.00 1512.3321 1043.3633 34.6847 1.2882
3380.00 1512.4955 1043.4089 34.6849 1.2846
3390.00 1512.6590 1043.4545 34.6851 1.2809
3400.00 1512.8224 1043.5001 34.6853 1.2773
3410.00 1512.9859 1043.5457 34.6855 1.2737
3420.00 1513.1493 1043.5913 34.6857 1.2701
3430.00 1513.3128 1043.6369 34.6859 1.2664
3440.00 1513.4763 1043.6825 34.6861 1.2628
3450.00 1513.6397 1043.7281 34.6863 1.2592
3460.00 1513.8032 1043.7737 34.6865 1.2556
3470.00 1513.9666 1043.8193 34.6867 1.2520
3480.00 1514.1301 1043.8649 34.6869 1.2483
3490.00 1514.2935 1043.9105 34.6871 1.2447
3500.00 1514.4570 1043.9561 34.6873 1.2411
3510.00 1514.6204 1044.0017 34.6875 1.2375
3520.00 1514.7839 1044.0473 34.6877 1.2338
3530.00 1514.9473 1044.0928 34.6879 1.2302
3540.00 1515.1108 1044.1384 34.6881 1.2266
3550.00 1515.2743 1044.1840 34.6883 1.2230
3560.00 1515.4377 1044.2296 34.6885 1.2193
3570.00 1515.6012 1044.2752 34.6887 1.2157
3580.00 1515.7646 1044.3208 34.6889 1.2121
3590.00 1515.9299 1044.3662 34.6891 1.2086
3600.00 1516.0954 1044.4116 34.6893 1.2052
3610.00 1516.2609 1044.4570 34.6895 1.2017
3620.00 1516.4265 1044.5023 34.6897 1.1983
3630.00 1516.5920 1044.5477 34.6899 1.1948
3640.00 1516.7575 1044.5931 34.6901 1.1914
3650.00 1516.9231 1044.6384 34.6903 1.1879
3660.00 1517.0886 1044.6838 34.6905 1.1845
3670.00 1517.2541 1044.7292 34.6907 1.1810
3680.00 1517.4196 1044.7745 34.6909 1.1776
3690.00 1517.5852 1044.8199 34.6911 1.1741
3700.00 1517.7507 1044.8653 34.6913 1.1707
3710.00 1517.9162 1044.9106 34.6916 1.1672
3720.00 1518.0818 1044.9560 34.6918 1.1638
3730.00 1518.2473 1045.0014 34.6920 1.1603
3740.00 1518.4128 1045.0467 34.6922 1.1569
3750.00 1518.5784 1045.0921 34.6924 1.1534
3760.00 1518.7439 1045.1375 34.6926 1.1500
3770.00 1518.9094 1045.1829 34.6928 1.1465
3780.00 1519.0749 1045.2282 34.6930 1.1431
3790.00 1519.2405 1045.2736 34.6932 1.1396
3800.00 1519.4060 1045.3190 34.6934 1.1361
3810.00 1519.5715 1045.3643 34.6936 1.1327
3820.00 1519.7371 1045.4097 34.6938 1.1292
3830.00 1519.9026 1045.4551 34.6940 1.1258
3840.00 1520.0681 1045.5004 34.6942 1.1223
3850.00 1520.2336 1045.5458 34.6944 1.1189
3860.00 1520.3992 1045.5912 34.6946 1.1154
3870.00 1520.5647 1045.6365 34.6948 1.1120
3880.00 1520.7302 1045.6819 34.6950 1.1085
3890.00 1520.8958 1045.7273 34.6952 1.1051
3900.00 1521.0613 1045.7726 34.6954 1.1016
3910.00 1521.2268 1045.8180 34.6956 1.0982
3920.00 1521.3929 1045.8632 34.6958 1.0946
3930.00 1521.5590 1045.9084 34.6960 1.0910
3940.00 1521.7252 1045.9536 34.6963 1.0873
3950.00 1521.8913 1045.9988 34.6965 1.0837
3960.00 1522.0575 1046.0440 34.6967 1.0801
3970.00 1522.2237 1046.0892 34.6969 1.0765
3980.00 1522.3898 1046.1344 34.6971 1.0729
3990.00 1522.5560 1046.1796 34.6973 1.0692
4000.00 1522.7221 1046.2248 34.6976 1.0656
4010.00 1522.8883 1046.2700 34.6978 1.0620
4020.00 1523.0544 1046.3152 34.6980 1.0584
4030.00 1523.2206 1046.3604 34.6982 1.0548
4040.00 1523.3867 1046.4056 34.6984 1.0511
4050.00 1523.5529 1046.4508 34.6987 1.0475
4060.00 1523.7190 1046.4960 34.6989 1.0439
4070.00 1523.8852 1046.5412 34.6991 1.0403
4080.00 1524.0513 1046.5864 34.6993 1.0367
4090.00 1524.2175 1046.6315 34.6995 1.0330
4100.00 1524.3837 1046.6767 34.6998 1.0294
4110.00 1524.5498 1046.7219 34.7000 1.0258
4120.00 1524.7160 1046.7671 34.7002 1.0222
4130.00 1524.8821 1046.8123 34.7004 1.0186
4140.00 1525.0483 1046.8575 34.7006 1.0149
4150.00 1525.2144 1046.9027 34.7009 1.0113
4160.00 1525.3806 1046.9479 34.7011 1.0077
4170.00 1525.5467 1046.9931 34.7013 1.0041
4180.00 1525.7129 1047.0383 34.7015 1.0005
4190.00 1525.8790 1047.0835 34.7017 0.9968
4200.00 1526.0452 1047.1287 34.7019 0.9932
4210.00 1526.2113 1047.1739 34.7022 0.9896
4220.00 1526.3775 1047.2191 34.7024 0.9860
4230.00 1526.5437 1047.2643 34.7026 0.9824
4240.00 1526.7098 1047.3095 34.7028 0.9787
4250.00 1526.8760 1047.3547 34.7030 0.9751
4260.00 1527.0421 1047.3999 34.7033 0.9715
4270.00 1527.2100 1047.4449 34.7035 0.9681
4280.00 1527.3791 1047.4898 34.7037 0.9648
4290.00 1527.5483 1047.5346 34.7039 0.9616
4300.00 1527.7174 1047.5795 34.7040 0.9583
4310.00 1527.8865 1047.6244 34.7042 0.9550
4320.00 1528.0557 1047.6693 34.7044 0.9518
4330.00 1528.2248 1047.7142 34.7046 0.9485
4340.00 1528.3939 1047.7591 34.7048 0.9452
4350.00 1528.5631 1047.8039 34.7050 0.9420
4360.00 1528.7322 1047.8488 34.7052 0.9387
4370.00 1528.9013 1047.8937 34.7054 0.9355
4380.00 1529.0705 1047.9386 34.7056 0.9322
4390.00 1529.2396 1047.9835 34.7058 0.9289
4400.00 1529.4088 1048.0284 34.7060 0.9257
4410.00 1529.5779 1048.0732 34.7062 0.9224
4420.00 1529.7470 1048.1181 34.7063 0.9191
4430.00 1529.9162 1048.1630 34.7065 0.9159
4440.00 1530.0853 1048.2079 34.7067 0.9126
4450.00 1530.2544 1048.2528 34.7069 0.9094
4460.00 1530.4236 1048.2977 34.7071 0.9061
4470.00 1530.5927 1048.3425 34.7073 0.9028
4480.00 1530.7619 1048.3874 34.7075 0.8996
4490.00 1530.9310 1048.4323 34.7077 0.8963
4500.00 1531.1001 1048.4772 34.7079 0.8930
4510.00 1531.2693 1048.5221 34.7081 0.8898
4520.00 1531.4384 1048.5670 34.7083 0.8865
4530.00 1531.6075 1048.6118 34.7085 0.8832
4540.00 1531.7767 1048.6567 34.7087 0.8800
4550.00 1531.9458 1048.7016 34.7088 0.8767
4560.00 1532.1149 1048.7465 34.7090 0.8735
4570.00 1532.2841 1048.7914 34.7092 0.8702
4580.00 1532.4532 1048.8363 34.7094 0.8669
4590.00 1532.6224 1048.8811 34.7096 0.8637
4600.00 1532.7915 1048.9260 34.7098 0.8604
4610.00 1532.9606 1048.9709 34.7100 0.8571
4620.00 1533.1298 1049.0158 34.7102 0.8539
4630.00 1533.2989 1049.0607 34.7104 0.8506
4640.00 1533.4680 1049.1056 34.7106 0.8474
4650.00 1533.6495 1049.1496 34.7106 0.8466
4660.00 1533.8313 1049.1936 34.7106 0.8459
4670.00 1534.0130 1049.2377 34.7107 0.8451
4680.00 1534.1948 1049.2817 34.7107 0.8444
4690.00 1534.3766 1049.3257 34.7108 0.8437
4700.00 1534.5584 1049.3698 34.7108 0.8430
4710.00 1534.7401 1049.4138 34.7108 0.8423
4720.00 1534.9219 1049.4578 34.7109 0.8416
4730.00 1535.1037 1049.5018 34.7109 0.8409
4740.00 1535.2854 1049.5459 34.7109 0.8401
4750.00 1535.4672 1049.5899 34.7110 0.8394
4760.00 1535.6490 1049.6339 34.7110 0.8387
4770.00 1535.8308 1049.6779 34.7111 0.8380
4780.00 1536.0125 1049.7220 34.7111 0.8373
4790.00 1536.1943 1049.7660 34.7111 0.8366
4800.00 1536.3761 1049.8100 34.7112 0.8359
4810.00 1536.5578 1049.8541 34.7112 0.8351
4820.00 1536.7396 1049.8981 34.7112 0.8344
4830.00 1536.9214 1049.9421 34.7113 0.8337
4840.00 1537.1032 1049.9861 34.7113 0.8330
4850.00 1537.2849 1050.0302 34.7114 0.8323
4860.00 1537.4667 1050.0742 34.7114 0.8316
4870.00 1537.6485 1050.1182 34.7114 0.8309
4880.00 1537.8302 1050.1623 34.7115 0.8301
4890.00 1538.0120 1050.2063 34.7115 0.8294
4900.00 1538.1938 1050.2503 34.7115 0.8287
4910.00 1538.3756 1050.2943 34.7116 0.8280
4920.00 1538.5573 1050.3384 34.7116 0.8273
4930.00 1538.7391 1050.3824 34.7117 0.8266
4940.00 1538.9209 1050.4264 34.7117 0.8259
4950.00 1539.1027 1050.4704 34.7117 0.8251
4960.00 1539.2844 1050.5145 34.7118 0.8244
4970.00 1539.4662 1050.5585 34.7118 0.8237
4980.00 1539.6480 1050.6025 34.7118 0.8230
4990.00 1539.8297 1050.6466 34.7119 0.8223
5000.00 1540.0115 1050.6906 34.7119 0.8216
5010.00 1540.1933 1050.7346 34.7120 0.8209
5020.00 1540.3751 1050.7786 34.7120 0.8201
5030.00 1540.5568 1050.8227 34.7120 0.8194
5040.00 1540.4030 1050.8841 34.7159 0.7427
5050.00 1540.5893 1050.9277 34.7159 0.7427
5060.00 1540.7756 1050.9712 34.7159 0.7427
5070.00 1540.9619 1051.0148 34.7159 0.7427
5080.00 1541.1482 1051.0584 34.7159 0.7427
5090.00 1541.3345 1051.1019 34.7159 0.7427
5100.00 1541.5208 1051.1455 34.7159 0.7427
5110.00 1541.7071 1051.1891 34.7159 0.7427
5120.00 1541.8934 1051.2326 34.7159 0.7427
5130.00 1542.0797 1051.2762 34.7159 0.7427
5140.00 1542.2660 1051.3198 34.7159 0.7427
5150.00 1542.4523 1051.3634 34.7159 0.7427
5160.00 1542.6386 1051.4069 34.7159 0.7427
5170.00 1542.8249 1051.4505 34.7159 0.7427
5180.00 1543.0112 1051.4941 34.7159 0.7427
5190.00 1543.1975 1051.5376 34.7159 0.7427
5200.00 1543.3838 1051.5812 34.7159 0.7427
5210.00 1543.5701 1051.6248 34.7159 0.7427
5220.00 1543.7564 1051.6683 34.7159 0.7427
5230.00 1543.9426 1051.7119 34.7159 0.7427
5240.00 1544.1289 1051.7555 34.7159 0.7427
5250.00 1544.3152 1051.7990 34.7159 0.7427
5260.00 1544.5015 1051.8426 34.7159 0.7427
5270.00 1544.6878 1051.8862 34.7159 0.7427
5280.00 1544.8741 1051.9298 34.7159 0.7427
5290.00 1545.0604 1051.9733 34.7159 0.7427
5300.00 1545.2467 1052.0169 34.7159 0.7427
5310.00 1545.4330 1052.0605 34.7159 0.7427
5320.00 1545.6193 1052.1040 34.7159 0.7427
5330.00 1545.8056 1052.1476 34.7159 0.7427
5340.00 1545.9919 1052.1912 34.7159 0.7427
5350.00 1546.1782 1052.2347 34.7159 0.7427
5360.00 1546.3645 1052.2783 34.7159 0.7427
5370.00 1546.5508 1052.3219 34.7159 0.7427
5380.00 1546.7371 1052.3655 34.7159 0.7427
5390.00 1546.9234 1052.4090 34.7159 0.7427
5400.00 1547.1097 1052.4526 34.7159 0.7427
5410.00 1547.2960 1052.4962 34.7159 0.7427
5420.00 1547.4823 1052.5397 34.7159 0.7427
5430.00 1547.6686 1052.5833 34.7159 0.7427
5440.00 1547.8549 1052.6269 34.7159 0.7427
5450.00 1548.0411 1052.6704 34.7159 0.7427
5460.00 1548.2274 1052.7140 34.7159 0.7427
5470.00 nan nan nan nan
5480.00 nan nan nan nan
5490.00 nan nan nan nan
5500.00 nan nan nan nan
5510.00 nan nan nan nan
5520.00 nan nan nan nan
5530.00 nan nan nan nan
5540.00 nan nan nan nan
5550.00 nan nan nan nan
5560.00 nan nan nan nan
5570.00 nan nan nan nan
5580.00 nan nan nan nan
5590.00 nan nan nan nan
5600.00 nan nan nan nan
5610.00 nan nan nan nan
5620.00 nan nan nan nan
5630.00 nan nan nan nan
5640.00 nan nan nan nan
5650.00 nan nan nan nan
5660.00 nan nan nan nan
5670.00 nan nan nan nan
5680.00 nan nan nan nan
5690.00 nan nan nan nan
5700.00 nan nan nan nan
5710.00 nan nan nan nan
5720.00 nan nan nan nan
5730.00 nan nan nan nan
5740.00 nan nan nan nan
5750.00 nan nan nan nan
5760.00 nan nan nan nan
5770.00 nan nan nan nan
5780.00 nan nan nan nan
5790.00 nan nan nan nan
5800.00 nan nan nan nan
5810.00 nan nan nan nan
5820.00 nan nan nan nan
5830.00 nan nan nan nan
5840.00 nan nan nan nan
5850.00 nan nan nan nan
5860.00 nan nan nan nan
5870.00 nan nan nan nan
5880.00 nan nan nan nan
5890.00 nan nan nan nan
5900.00 nan nan nan nan
5910.00 nan nan nan nan
5920.00 nan nan nan nan
5930.00 nan nan nan nan
5940.00 nan nan nan nan
5950.00 nan nan nan nan
5960.00 nan nan nan nan
5970.00 nan nan nan nan
5980.00 nan nan nan nan
5990.00 nan nan nan nan
6000.00 nan nan nan nan
6010.00 nan nan nan nan
6020.00 nan nan nan nan
6030.00 nan nan nan nan
6040.00 nan nan nan nan
6050.00 nan nan nan nan
6060.00 nan nan nan nan
6070.00 nan nan nan nan
6080.00 nan nan nan nan
6090.00 nan nan nan nan
6100.00 nan nan nan nan
6110.00 nan nan nan nan
6120.00 nan nan nan nan
6130.00 nan nan nan nan
6140.00 nan nan nan nan
6150.00 nan nan nan nan
6160.00 nan nan nan nan
6170.00 nan nan nan nan
6180.00 nan nan nan nan
6190.00 nan nan nan nan
6200.00 nan nan nan nan
6210.00 nan nan nan nan
6220.00 nan nan nan nan
6230.00 nan nan nan nan
6240.00 nan nan nan nan
6250.00 nan nan nan nan
6260.00 nan nan nan nan
6270.00 nan nan nan nan
6280.00 nan nan nan nan
6290.00 nan nan nan nan
6300.00 nan nan nan nan
6310.00 nan nan nan nan
6320.00 nan nan nan nan
6330.00 nan nan nan nan
6340.00 nan nan nan nan
6350.00 nan nan nan nan
6360.00 nan nan nan nan
6370.00 nan nan nan nan
6380.00 nan nan nan nan
6390.00 nan nan nan nan
6400.00 nan nan nan nan
6410.00 nan nan nan nan
6420.00 nan nan nan nan
6430.00 nan nan nan nan
6440.00 nan nan nan nan
6450.00 nan nan nan nan
6460.00 nan nan nan nan
6470.00 nan nan nan nan
6480.00 nan nan nan nan
6490.00 nan nan nan nan
6500.00 nan nan nan nan
6510.00 nan nan nan nan
6520.00 nan nan nan nan
6530.00 nan nan nan nan
6540.00 nan nan nan nan
6550.00 nan nan nan nan
6560.00 nan nan nan nan
6570.00 nan nan nan nan
6580.00 nan nan nan nan
6590.00 nan nan nan nan
6600.00 nan nan nan nan
6610.00 nan nan nan nan
6620.00 nan nan nan nan
6630.00 nan nan nan nan
6640.00 nan nan nan nan
6650.00 nan nan nan nan
6660.00 nan nan nan nan
6670.00 nan nan nan nan
6680.00 nan nan nan nan
6690.00 nan nan nan nan
6700.00 nan nan nan nan
6710.00 nan nan nan nan
6720.00 nan nan nan nan
6730.00 nan nan nan nan
6740.00 nan nan nan nan
6750.00 nan nan nan nan
6760.00 nan nan nan nan
6770.00 nan nan nan nan
6780.00 nan nan nan nan
6790.00 nan nan nan nan
6800.00 nan nan nan nan
6810.00 nan nan nan nan
6820.00 nan nan nan nan
6830.00 nan nan nan nan
6840.00 nan nan nan nan
6850.00 nan nan nan nan
6860.00 nan nan nan nan
6870.00 nan nan nan nan
6880.00 nan nan nan nan
6890.00 nan nan nan nan
6900.00 nan nan nan nan
6910.00 nan nan nan nan
6920.00 nan nan nan nan
6930.00 nan nan nan nan
6940.00 nan nan nan nan
6950.00 nan nan nan nan
6960.00 nan nan nan nan
6970.00 nan nan nan nan
6980.00 nan nan nan nan
6990.00 nan nan nan nan
7000.00 nan nan nan nan
7010.00 nan nan nan nan
7020.00 nan nan nan nan
7030.00 nan nan nan nan
7040.00 nan nan nan nan
7050.00 nan nan nan nan
7060.00 nan nan nan nan
7070.00 nan nan nan nan
7080.00 nan nan nan nan
7090.00 nan nan nan nan
7100.00 nan nan nan nan
7110.00 nan nan nan nan
7120.00 nan nan nan nan
7130.00 nan nan nan nan
7140.00 nan nan nan nan
7150.00 nan nan nan nan
7160.00 nan nan nan nan
7170.00 nan nan nan nan
7180.00 nan nan nan nan
7190.00 nan nan nan nan
7200.00 nan nan nan nan
7210.00 nan nan nan nan
7220.00 nan nan nan nan
7230.00 nan nan nan nan
7240.00 nan nan nan nan
7250.00 nan nan nan nan
7260.00 nan nan nan nan
7270.00 nan nan nan nan
7280.00 nan nan nan nan
7290.00 nan nan nan nan
7300.00 nan nan nan nan
7310.00 nan nan nan nan
7320.00 nan nan nan nan
7330.00 nan nan nan nan
7340.00 nan nan nan nan
7350.00 nan nan nan nan
7360.00 nan nan nan nan
7370.00 nan nan nan nan
7380.00 nan nan nan nan
7390.00 nan nan nan nan
7400.00 nan nan nan nan
7410.00 nan nan nan nan
7420.00 nan nan nan nan
7430.00 nan nan nan nan
7440.00 nan nan nan nan
7450.00 nan nan nan nan
7460.00 nan nan nan nan
7470.00 nan nan nan nan
7480.00 nan nan nan nan
7490.00 nan nan nan nan
7500.00 nan nan nan nan
7510.00 nan nan nan nan
7520.00 nan nan nan nan
7530.00 nan nan nan nan
7540.00 nan nan nan nan
7550.00 nan nan nan nan
7560.00 nan nan nan nan
7570.00 nan nan nan nan
7580.00 nan nan nan nan
7590.00 nan nan nan nan
7600.00 nan nan nan nan
7610.00 nan nan nan nan
7620.00 nan nan nan nan
7630.00 nan nan nan nan
7640.00 nan nan nan nan
7650.00 nan nan nan nan
7660.00 nan nan nan nan
7670.00 nan nan nan nan
7680.00 nan nan nan nan
7690.00 nan nan nan nan
7700.00 nan nan nan nan
7710.00 nan nan nan nan
7720.00 nan nan nan nan
7730.00 nan nan nan nan
7740.00 nan nan nan nan
7750.00 nan nan nan nan
7760.00 nan nan nan nan
7770.00 nan nan nan nan
7780.00 nan nan nan nan
7790.00 nan nan nan nan
7800.00 nan nan nan nan
7810.00 nan nan nan nan
7820.00 nan nan nan nan
7830.00 nan nan nan nan
7840.00 nan nan nan nan
7850.00 nan nan nan nan
7860.00 nan nan nan nan
7870.00 nan nan nan nan
7880.00 nan nan nan nan
7890.00 nan nan nan nan
7900.00 nan nan nan nan
7910.00 nan nan nan nan
7920.00 nan nan nan nan
7930.00 nan nan nan nan
7940.00 nan nan nan nan
7950.00 nan nan nan nan
7960.00 nan nan nan nan
7970.00 nan nan nan nan
7980.00 nan nan nan nan
7990.00 nan nan nan nan
