# Averages over distance (i) for each depth (k):
# Depth(m) Speed(m/s) Density(kg/m^3) Salt PSU Theta(degC)
0.00 1511.3938 1025.0074 34.2749 16.8090
10.00 1511.4686 1025.0579 34.2734 16.7782
20.00 1511.3953 1025.1181 34.2698 16.6993
30.00 1510.9407 1025.2023 34.2604 16.4976
40.00 1510.0013 1025.3163 34.2441 16.1420
50.00 1508.6556 1025.4535 34.2226 15.6611
60.00 1507.1018 1025.5997 34.1985 15.1213
70.00 1505.5254 1025.7430 34.1741 14.5821
80.00 1504.0542 1025.8760 34.1504 14.0826
90.00 1502.7397 1025.9957 34.1269 13.6372
100.00 1501.5793 1026.1028 34.1031 13.2436
110.00 1500.5615 1026.2003 34.0805 12.8962
120.00 1499.6473 1026.2924 34.0606 12.5815
130.00 1498.7608 1026.3846 34.0443 12.2763
140.00 1497.8529 1026.4806 34.0324 11.9653
150.00 1496.9421 1026.5871 34.0348 11.6515
160.00 1496.0783 1026.7006 34.0498 11.3488
170.00 1495.2526 1026.8198 34.0751 11.0551
180.00 1494.5586 1026.9431 34.1150 10.7962
190.00 1493.9061 1027.0678 34.1596 10.5484
200.00 1493.3493 1027.1881 34.2057 10.3284
210.00 1492.8785 1027.3046 34.2530 10.1335
220.00 1492.4077 1027.4211 34.3004 9.9386
230.00 1491.9941 1027.5247 34.3367 9.7653
240.00 1491.6016 1027.6234 34.3687 9.6000
250.00 1491.2092 1027.7221 34.4008 9.4348
260.00 1490.8101 1027.8158 34.4269 9.2705
270.00 1490.3916 1027.8947 34.4355 9.1090
280.00 1489.9730 1027.9736 34.4441 8.9475
290.00 1489.5544 1028.0525 34.4527 8.7860
300.00 1489.1355 1028.1314 34.4611 8.6244
310.00 1488.6708 1028.1979 34.4544 8.4591
320.00 1488.2061 1028.2645 34.4477 8.2939
330.00 1487.7414 1028.3310 34.4410 8.1286
340.00 1487.2767 1028.3976 34.4342 7.9633
350.00 1486.8120 1028.4641 34.4275 7.7980
360.00 1486.3939 1028.5243 34.4172 7.6493
370.00 1485.9793 1028.5840 34.4067 7.5019
380.00 1485.5646 1028.6437 34.3962 7.3545
390.00 1485.1500 1028.7034 34.3856 7.2071
400.00 1484.7354 1028.7631 34.3751 7.0597
410.00 1484.3218 1028.8228 34.3646 6.9125
420.00 1484.0617 1028.8778 34.3569 6.8064
430.00 1483.8016 1028.9329 34.3491 6.7003
440.00 1483.5414 1028.9880 34.3414 6.5942
450.00 1483.2813 1029.0430 34.3337 6.4880
460.00 1483.0212 1029.0981 34.3259 6.3819
470.00 1482.7610 1029.1532 34.3182 6.2758
480.00 1482.5375 1029.2077 34.3116 6.1788
490.00 1482.4218 1029.2608 34.3082 6.1090
500.00 1482.3062 1029.3138 34.3048 6.0392
510.00 1482.1906 1029.3668 34.3014 5.9694
520.00 1482.0749 1029.4199 34.2981 5.8996
530.00 1481.9593 1029.4729 34.2947 5.8298
540.00 1481.8437 1029.5260 34.2913 5.7600
550.00 1481.7280 1029.5790 34.2879 5.6902
560.00 1481.6660 1029.6320 34.2869 5.6335
570.00 1481.6238 1029.6850 34.2868 5.5816
580.00 1481.5816 1029.7380 34.2866 5.5296
590.00 1481.5395 1029.7911 34.2865 5.4777
600.00 1481.4973 1029.8441 34.2863 5.4258
610.00 1481.4551 1029.8971 34.2862 5.3739
620.00 1481.4130 1029.9501 34.2860 5.3220
630.00 1481.3708 1030.0031 34.2859 5.2701
640.00 1481.3405 1030.0565 34.2868 5.2210
650.00 1481.3208 1030.1103 34.2886 5.1745
660.00 1481.3011 1030.1641 34.2905 5.1279
670.00 1481.2814 1030.2179 34.2923 5.0814
680.00 1481.2617 1030.2717 34.2942 5.0348
690.00 1481.2420 1030.3255 34.2960 4.9883
700.00 1481.2223 1030.3793 34.2978 4.9417
710.00 1481.2027 1030.4331 34.2997 4.8952
720.00 1481.1830 1030.4868 34.3015 4.8486
730.00 1481.1699 1030.5412 34.3045 4.8036
740.00 1481.1589 1030.5958 34.3077 4.7591
750.00 1481.1479 1030.6504 34.3110 4.7147
760.00 1481.1369 1030.7050 34.3143 4.6702
770.00 1481.1260 1030.7596 34.3176 4.6257
780.00 1481.1150 1030.8142 34.3208 4.5812
790.00 1481.1040 1030.8688 34.3241 4.5368
800.00 1481.0930 1030.9234 34.3274 4.4923
810.00 1481.0820 1030.9779 34.3307 4.4478
820.00 1481.0805 1031.0327 34.3346 4.4056
830.00 1481.0866 1031.0876 34.3390 4.3652
840.00 1481.0927 1031.1425 34.3434 4.3249
850.00 1481.0988 1031.1974 34.3478 4.2845
860.00 1481.1050 1031.2523 34.3522 4.2442
870.00 1481.1111 1031.3072 34.3566 4.2038
880.00 1481.1172 1031.3621 34.3610 4.1634
890.00 1481.1233 1031.4170 34.3655 4.1231
900.00 1481.1294 1031.4719 34.3699 4.0827
910.00 1481.1364 1031.5268 34.3743 4.0425
920.00 1481.1736 1031.5810 34.3791 4.0097
930.00 1481.2108 1031.6353 34.3839 3.9769
940.00 1481.2480 1031.6895 34.3887 3.9440
950.00 1481.2852 1031.7437 34.3935 3.9112
960.00 1481.3224 1031.7979 34.3984 3.8784
970.00 1481.3596 1031.8522 34.4032 3.8455
980.00 1481.3968 1031.9064 34.4080 3.8127
990.00 1481.4341 1031.9606 34.4128 3.7798
1000.00 1481.4713 1032.0148 34.4176 3.7470
1010.00 1481.5169 1032.0687 34.4223 3.7162
1020.00 1481.5836 1032.1216 34.4267 3.6906
1030.00 1481.6502 1032.1745 34.4310 3.6650
1040.00 1481.7169 1032.2275 34.4354 3.6394
1050.00 1481.7836 1032.2804 34.4397 3.6138
1060.00 1481.8503 1032.3333 34.4441 3.5882
1070.00 1481.9170 1032.3862 34.4484 3.5626
1080.00 1481.9837 1032.4392 34.4528 3.5370
1090.00 1482.0504 1032.4921 34.4571 3.5114
1100.00 1482.1171 1032.5450 34.4615 3.4858
1110.00 1482.1905 1032.5974 34.4655 3.4619
1120.00 1482.2735 1032.6492 34.4690 3.4405
1130.00 1482.3566 1032.7009 34.4726 3.4190
1140.00 1482.4397 1032.7526 34.4761 3.3976
1150.00 1482.5228 1032.8044 34.4796 3.3761
1160.00 1482.6059 1032.8561 34.4832 3.3547
1170.00 1482.6889 1032.9078 34.4867 3.3332
1180.00 1482.7720 1032.9596 34.4903 3.3118
1190.00 1482.8551 1033.0113 34.4938 3.2903
1200.00 1482.9382 1033.0630 34.4973 3.2689
1210.00 1483.0246 1033.1144 34.5006 3.2484
1220.00 1483.1153 1033.1652 34.5034 3.2289
1230.00 1483.2059 1033.2161 34.5062 3.2095
1240.00 1483.2966 1033.2670 34.5090 3.1900
1250.00 1483.3872 1033.3179 34.5118 3.1706
1260.00 1483.4779 1033.3688 34.5147 3.1512
1270.00 1483.5685 1033.4196 34.5175 3.1317
1280.00 1483.6592 1033.4705 34.5203 3.1123
1290.00 1483.7498 1033.5214 34.5231 3.0929
1300.00 1483.8405 1033.5723 34.5259 3.0734
1310.00 1483.9328 1033.6229 34.5286 3.0545
1320.00 1484.0279 1033.6732 34.5309 3.0362
1330.00 1484.1231 1033.7235 34.5332 3.0180
1340.00 1484.2182 1033.7738 34.5355 2.9997
1350.00 1484.3133 1033.8241 34.5379 2.9815
1360.00 1484.4085 1033.8744 34.5402 2.9633
1370.00 1484.5036 1033.9248 34.5425 2.9450
1380.00 1484.5987 1033.9751 34.5448 2.9268
1390.00 1484.6938 1034.0254 34.5471 2.9086
1400.00 1484.7890 1034.0757 34.5495 2.8903
1410.00 1484.8844 1034.1259 34.5518 2.8722
1420.00 1484.9835 1034.1758 34.5537 2.8549
1430.00 1485.0825 1034.2257 34.5557 2.8377
1440.00 1485.1815 1034.2756 34.5577 2.8205
1450.00 1485.2806 1034.3254 34.5597 2.8032
1460.00 1485.3796 1034.3753 34.5617 2.7860
1470.00 1485.4787 1034.4252 34.5636 2.7687
1480.00 1485.5777 1034.4751 34.5656 2.7515
1490.00 1485.6767 1034.5250 34.5676 2.7343
1500.00 1485.7758 1034.5748 34.5696 2.7170
1510.00 1485.8748 1034.6247 34.5716 2.6998
1520.00 1485.9753 1034.6745 34.5735 2.6829
1530.00 1486.0792 1034.7239 34.5752 2.6668
1540.00 1486.1831 1034.7734 34.5769 2.6508
1550.00 1486.2870 1034.8228 34.5786 2.6347
1560.00 1486.3909 1034.8723 34.5803 2.6187
1570.00 1486.4948 1034.9218 34.5820 2.6026
1580.00 1486.5988 1034.9712 34.5837 2.5866
1590.00 1486.7027 1035.0207 34.5854 2.5705
1600.00 1486.8066 1035.0702 34.5871 2.5545
1610.00 1486.9105 1035.1196 34.5888 2.5384
1620.00 1487.0144 1035.1691 34.5905 2.5224
1630.00 1487.1183 1035.2185 34.5922 2.5063
1640.00 1487.2264 1035.2677 34.5937 2.4912
1650.00 1487.3376 1035.3167 34.5951 2.4769
1660.00 1487.4487 1035.3657 34.5966 2.4625
1670.00 1487.5598 1035.4147 34.5980 2.4481
1680.00 1487.6710 1035.4637 34.5994 2.4338
1690.00 1487.7821 1035.5127 34.6009 2.4194
1700.00 1487.8932 1035.5617 34.6023 2.4050
1710.00 1488.0044 1035.6107 34.6037 2.3907
1720.00 1488.1155 1035.6597 34.6052 2.3763
1730.00 1488.2267 1035.7087 34.6066 2.3619
1740.00 1488.3378 1035.7577 34.6080 2.3476
1750.00 1488.4489 1035.8067 34.6095 2.3332
1760.00 1488.5601 1035.8557 34.6109 2.3188
1770.00 1488.6758 1035.9044 34.6122 2.3055
1780.00 1488.7964 1035.9529 34.6133 2.2933
1790.00 1488.9170 1036.0014 34.6145 2.2811
1800.00 1489.0376 1036.0498 34.6157 2.2689
1810.00 1489.1582 1036.0983 34.6168 2.2567
1820.00 1489.2788 1036.1467 34.6180 2.2445
1830.00 1489.3995 1036.1952 34.6192 2.2323
1840.00 1489.5201 1036.2437 34.6203 2.2201
1850.00 1489.6407 1036.2921 34.6215 2.2079
1860.00 1489.7613 1036.3406 34.6227 2.1957
1870.00 1489.8819 1036.3890 34.6238 2.1834
1880.00 1490.0025 1036.4375 34.6250 2.1712
1890.00 1490.1231 1036.4860 34.6262 2.1590
1900.00 1490.2437 1036.5344 34.6273 2.1468
1910.00 1490.3643 1036.5829 34.6285 2.1346
1920.00 1490.4912 1036.6310 34.6295 2.1238
1930.00 1490.6225 1036.6789 34.6304 2.1140
1940.00 1490.7538 1036.7268 34.6313 2.1042
1950.00 1490.8851 1036.7747 34.6323 2.0943
1960.00 1491.0165 1036.8226 34.6332 2.0845
1970.00 1491.1478 1036.8705 34.6341 2.0747
1980.00 1491.2791 1036.9184 34.6350 2.0649
1990.00 1491.4104 1036.9663 34.6359 2.0551
2000.00 1491.5417 1037.0142 34.6369 2.0452
2010.00 1491.6730 1037.0621 34.6378 2.0354
2020.00 1491.8044 1037.1099 34.6387 2.0256
2030.00 1491.9357 1037.1578 34.6396 2.0158
2040.00 1492.0670 1037.2057 34.6406 2.0060
2050.00 1492.1983 1037.2536 34.6415 1.9961
2060.00 1492.3296 1037.3015 34.6424 1.9863
2070.00 1492.4609 1037.3494 34.6433 1.9765
2080.00 1492.5923 1037.3973 34.6442 1.9667
2090.00 1492.7299 1037.4449 34.6450 1.9582
2100.00 1492.8717 1037.4922 34.6457 1.9507
2110.00 1493.0136 1037.5396 34.6464 1.9432
2120.00 1493.1555 1037.5869 34.6472 1.9357
2130.00 1493.2974 1037.6342 34.6479 1.9281
2140.00 1493.4392 1037.6816 34.6486 1.9206
2150.00 1493.5811 1037.7289 34.6493 1.9131
2160.00 1493.7230 1037.7763 34.6500 1.9056
2170.00 1493.8648 1037.8236 34.6507 1.8980
2180.00 1494.0067 1037.8709 34.6514 1.8905
2190.00 1494.1486 1037.9183 34.6521 1.8830
2200.00 1494.2904 1037.9656 34.6528 1.8754
2210.00 1494.4323 1038.0130 34.6535 1.8679
2220.00 1494.5742 1038.0603 34.6542 1.8604
2230.00 1494.7160 1038.1076 34.6550 1.8529
2240.00 1494.8579 1038.1550 34.6557 1.8453
2250.00 1494.9998 1038.2023 34.6564 1.8378
2260.00 1495.1416 1038.2497 34.6571 1.8303
2270.00 1495.2835 1038.2970 34.6578 1.8228
2280.00 1495.4289 1038.3441 34.6584 1.8160
2290.00 1495.5802 1038.3910 34.6590 1.8104
2300.00 1495.7314 1038.4378 34.6595 1.8049
2310.00 1495.8827 1038.4846 34.6600 1.7993
2320.00 1496.0339 1038.5314 34.6606 1.7938
2330.00 1496.1851 1038.5783 34.6611 1.7882
2340.00 1496.3364 1038.6251 34.6616 1.7827
2350.00 1496.4876 1038.6719 34.6621 1.7771
2360.00 1496.6389 1038.7187 34.6627 1.7716
2370.00 1496.7901 1038.7656 34.6632 1.7660
2380.00 1496.9414 1038.8124 34.6637 1.7605
2390.00 1497.0926 1038.8592 34.6643 1.7549
2400.00 1497.2439 1038.9060 34.6648 1.7494
2410.00 1497.3951 1038.9528 34.6653 1.7438
2420.00 1497.5463 1038.9997 34.6659 1.7383
2430.00 1497.6976 1039.0465 34.6664 1.7327
2440.00 1497.8488 1039.0933 34.6669 1.7272
2450.00 1498.0001 1039.1401 34.6675 1.7216
2460.00 1498.1513 1039.1870 34.6680 1.7161
2470.00 1498.3026 1039.2338 34.6685 1.7105
2480.00 1498.4538 1039.2806 34.6690 1.7050
2490.00 1498.6051 1039.3274 34.6696 1.6994
2500.00 1498.7628 1039.3739 34.6700 1.6952
2510.00 1498.9214 1039.4202 34.6704 1.6911
2520.00 1499.0801 1039.4666 34.6708 1.6871
2530.00 1499.2387 1039.5130 34.6711 1.6830
2540.00 1499.3973 1039.5593 34.6715 1.6789
2550.00 1499.5560 1039.6057 34.6719 1.6749
2560.00 1499.7146 1039.6521 34.6723 1.6708
2570.00 1499.8733 1039.6984 34.6727 1.6667
2580.00 1500.0319 1039.7448 34.6731 1.6627
2590.00 1500.1906 1039.7912 34.6735 1.6586
2600.00 1500.3492 1039.8375 34.6739 1.6546
2610.00 1500.5079 1039.8839 34.6742 1.6505
2620.00 1500.6665 1039.9303 34.6746 1.6464
2630.00 1500.8251 1039.9766 34.6750 1.6424
2640.00 1500.9838 1040.0230 34.6754 1.6383
2650.00 1501.1424 1040.0694 34.6758 1.6342
2660.00 1501.3011 1040.1157 34.6762 1.6302
2670.00 1501.4597 1040.1621 34.6766 1.6261
2680.00 1501.6184 1040.2085 34.6770 1.6221
2690.00 1501.7770 1040.2548 34.6773 1.6180
2700.00 1501.9356 1040.3012 34.6777 1.6139
2710.00 1502.0943 1040.3476 34.6781 1.6099
2720.00 1502.2529 1040.3939 34.6785 1.6058
2730.00 1502.4120 1040.4403 34.6789 1.6018
2740.00 1502.5763 1040.4862 34.6792 1.5988
2750.00 1502.7407 1040.5322 34.6794 1.5958
2760.00 1502.9050 1040.5782 34.6797 1.5928
2770.00 1503.0693 1040.6241 34.6800 1.5899
2780.00 1503.2337 1040.6701 34.6802 1.5869
2790.00 1503.3980 1040.7161 34.6805 1.5839
2800.00 1503.5623 1040.7620 34.6808 1.5809
2810.00 1503.7267 1040.8080 34.6811 1.5779
2820.00 1503.8910 1040.8539 34.6813 1.5749
2830.00 1504.0553 1040.8999 34.6816 1.5719
2840.00 1504.2197 1040.9459 34.6819 1.5689
2850.00 1504.3840 1040.9918 34.6822 1.5659
2860.00 1504.5483 1041.0378 34.6824 1.5629
2870.00 1504.7127 1041.0838 34.6827 1.5599
2880.00 1504.8770 1041.1297 34.6830 1.5569
2890.00 1505.0413 1041.1757 34.6832 1.5540
2900.00 1505.2057 1041.2217 34.6835 1.5510
2910.00 1505.3700 1041.2676 34.6838 1.5480
2920.00 1505.5343 1041.3136 34.6841 1.5450
2930.00 1505.6987 1041.3595 34.6843 1.5420
2940.00 1505.8630 1041.4055 34.6846 1.5390
2950.00 1506.0274 1041.4515 34.6849 1.5360
2960.00 1506.1917 1041.4974 34.6851 1.5330
2970.00 1506.3560 1041.5434 34.6854 1.5300
2980.00 1506.5204 1041.5894 34.6857 1.5270
2990.00 1506.6847 1041.6353 34.6860 1.5240
3000.00 1506.8530 1041.6809 34.6862 1.5217
3010.00 1507.0213 1041.7266 34.6864 1.5194
3020.00 1507.1897 1041.7722 34.6866 1.5170
3030.00 1507.3581 1041.8178 34.6868 1.5147
3040.00 1507.5264 1041.8634 34.6870 1.5124
3050.00 1507.6948 1041.9091 34.6872 1.5101
3060.00 1507.8631 1041.9547 34.6874 1.5077
3070.00 1508.0315 1042.0003 34.6876 1.5054
3080.00 1508.1999 1042.0459 34.6878 1.5031
3090.00 1508.3682 1042.0915 34.6880 1.5008
3100.00 1508.5366 1042.1372 34.6882 1.4984
3110.00 1508.7050 1042.1828 34.6883 1.4961
3120.00 1508.8733 1042.2284 34.6885 1.4938
3130.00 1509.0417 1042.2740 34.6887 1.4915
3140.00 1509.2101 1042.3197 34.6889 1.4891
3150.00 1509.3784 1042.3653 34.6891 1.4868
3160.00 1509.5468 1042.4109 34.6893 1.4845
3170.00 1509.7152 1042.4565 34.6895 1.4822
3180.00 1509.8835 1042.5021 34.6897 1.4798
3190.00 1510.0519 1042.5478 34.6899 1.4775
3200.00 1510.2203 1042.5934 34.6901 1.4752
3210.00 1510.3886 1042.6390 34.6903 1.4729
3220.00 1510.5570 1042.6846 34.6905 1.4705
3230.00 1510.7254 1042.7303 34.6907 1.4682
3240.00 1510.8937 1042.7759 34.6909 1.4659
3250.00 1511.0621 1042.8215 34.6911 1.4636
3260.00 1511.2305 1042.8671 34.6913 1.4612
3270.00 1511.3988 1042.9127 34.6915 1.4589
3280.00 1511.5692 1042.9582 34.6917 1.4569
3290.00 1511.7412 1043.0035 34.6919 1.4551
3300.00 1511.9131 1043.0488 34.6920 1.4533
3310.00 1512.0850 1043.0941 34.6922 1.4515
3320.00 1512.2569 1043.1394 34.6923 1.4497
3330.00 1512.4289 1043.1847 34.6925 1.4479
3340.00 1512.6008 1043.2300 34.6927 1.4461
3350.00 1512.7727 1043.2753 34.6928 1.4444
3360.00 1512.9447 1043.3206 34.6930 1.4426
3370.00 1513.1166 1043.3659 34.6931 1.4408
3380.00 1513.2885 1043.4112 34.6933 1.4390
3390.00 1513.4604 1043.4565 34.6935 1.4372
3400.00 1513.6324 1043.5018 34.6936 1.4354
3410.00 1513.8043 1043.5471 34.6938 1.4336
3420.00 1513.9762 1043.5924 34.6939 1.4318
3430.00 1514.1481 1043.6377 34.6941 1.4300
3440.00 1514.3201 1043.6830 34.6942 1.4282
3450.00 1514.4920 1043.7283 34.6944 1.4264
3460.00 1514.6639 1043.7736 34.6946 1.4246
3470.00 1514.8359 1043.8189 34.6947 1.4229
3480.00 1515.0078 1043.8642 34.6949 1.4211
3490.00 1515.1797 1043.9095 34.6950 1.4193
3500.00 1515.3516 1043.9548 34.6952 1.4175
3510.00 1515.5236 1044.0001 34.6954 1.4157
3520.00 1515.6955 1044.0454 34.6955 1.4139
3530.00 1515.8674 1044.0907 34.6957 1.4121
3540.00 1516.0393 1044.1361 34.6958 1.4103
3550.00 1516.2113 1044.1814 34.6960 1.4085
3560.00 1516.3832 1044.2267 34.6962 1.4067
3570.00 1516.5551 1044.2720 34.6963 1.4049
3580.00 1516.7271 1044.3173 34.6965 1.4032
3590.00 1516.9056 1044.3621 34.6965 1.4026
3600.00 1517.0850 1044.4068 34.6966 1.4023
3610.00 1517.2644 1044.4516 34.6966 1.4019
3620.00 1517.4439 1044.4963 34.6966 1.4015
3630.00 1517.6233 1044.5410 34.6967 1.4012
3640.00 1517.8027 1044.5858 34.6967 1.4008
3650.00 1517.9822 1044.6305 34.6968 1.4005
3660.00 1518.1616 1044.6753 34.6968 1.4001
3670.00 1518.3411 1044.7200 34.6968 1.3997
3680.00 1518.5205 1044.7647 34.6969 1.3994
3690.00 1518.6999 1044.8095 34.6969 1.3990
3700.00 1518.8794 1044.8542 34.6969 1.3986
3710.00 1519.0588 1044.8990 34.6970 1.3983
3720.00 1519.2383 1044.9437 34.6970 1.3979
3730.00 1519.4177 1044.9884 34.6971 1.3976
3740.00 1519.5971 1045.0332 34.6971 1.3972
3750.00 1519.7766 1045.0779 34.6971 1.3968
3760.00 1519.9560 1045.1227 34.6972 1.3965
3770.00 1520.1355 1045.1674 34.6972 1.3961
3780.00 1520.3149 1045.2121 34.6973 1.3958
3790.00 1520.4943 1045.2569 34.6973 1.3954
3800.00 1520.6738 1045.3016 34.6973 1.3950
3810.00 1520.8532 1045.3463 34.6974 1.3947
3820.00 1521.0326 1045.3911 34.6974 1.3943
3830.00 1521.2121 1045.4358 34.6974 1.3940
3840.00 1521.3915 1045.4806 34.6975 1.3936
3850.00 1521.5710 1045.5253 34.6975 1.3932
3860.00 1521.7504 1045.5700 34.6976 1.3929
3870.00 1521.9298 1045.6148 34.6976 1.3925
3880.00 1522.1093 1045.6595 34.6976 1.3922
3890.00 1522.2887 1045.7043 34.6977 1.3918
3900.00 1522.4682 1045.7490 34.6977 1.3914
3910.00 1522.6476 1045.7937 34.6977 1.3911
3920.00 1522.6922 1045.8471 34.7012 1.3586
3930.00 1522.8745 1045.8915 34.7012 1.3586
3940.00 1523.0568 1045.9359 34.7012 1.3586
3950.00 1523.2391 1045.9803 34.7012 1.3586
3960.00 1523.4214 1046.0247 34.7012 1.3586
3970.00 1523.6037 1046.0691 34.7012 1.3586
3980.00 1523.7860 1046.1135 34.7012 1.3586
3990.00 1523.9683 1046.1579 34.7012 1.3586
4000.00 1524.1507 1046.2023 34.7012 1.3586
4010.00 1524.3330 1046.2467 34.7012 1.3586
4020.00 1524.5153 1046.2911 34.7012 1.3586
4030.00 1524.6976 1046.3355 34.7012 1.3586
4040.00 1524.8799 1046.3799 34.7012 1.3586
4050.00 1525.0622 1046.4243 34.7012 1.3586
4060.00 1525.2445 1046.4687 34.7012 1.3586
4070.00 1525.4268 1046.5130 34.7012 1.3586
4080.00 1525.6091 1046.5574 34.7012 1.3586
4090.00 1525.7915 1046.6018 34.7012 1.3586
4100.00 1525.9738 1046.6462 34.7012 1.3586
4110.00 1526.1561 1046.6906 34.7012 1.3586
4120.00 1526.3384 1046.7350 34.7012 1.3586
4130.00 1526.5207 1046.7794 34.7012 1.3586
4140.00 1526.7030 1046.8238 34.7012 1.3586
4150.00 1526.8853 1046.8682 34.7012 1.3586
4160.00 1527.0676 1046.9126 34.7012 1.3586
4170.00 1527.2499 1046.9570 34.7012 1.3586
4180.00 1527.4323 1047.0014 34.7012 1.3586
4190.00 1527.6146 1047.0458 34.7012 1.3586
4200.00 1527.7969 1047.0902 34.7012 1.3586
4210.00 1527.9792 1047.1346 34.7012 1.3586
4220.00 1528.1615 1047.1790 34.7012 1.3586
4230.00 1528.3438 1047.2234 34.7012 1.3586
4240.00 1528.5261 1047.2678 34.7012 1.3586
4250.00 1528.7084 1047.3122 34.7012 1.3586
4260.00 1528.8908 1047.3566 34.7012 1.3586
4270.00 nan nan nan nan
4280.00 nan nan nan nan
4290.00 nan nan nan nan
4300.00 nan nan nan nan
4310.00 nan nan nan nan
4320.00 nan nan nan nan
4330.00 nan nan nan nan
4340.00 nan nan nan nan
4350.00 nan nan nan nan
4360.00 nan nan nan nan
4370.00 nan nan nan nan
4380.00 nan nan nan nan
4390.00 nan nan nan nan
4400.00 nan nan nan nan
4410.00 nan nan nan nan
4420.00 nan nan nan nan
4430.00 nan nan nan nan
4440.00 nan nan nan nan
4450.00 nan nan nan nan
4460.00 nan nan nan nan
4470.00 nan nan nan nan
4480.00 nan nan nan nan
4490.00 nan nan nan nan
4500.00 nan nan nan nan
4510.00 nan nan nan nan
4520.00 nan nan nan nan
4530.00 nan nan nan nan
4540.00 nan nan nan nan
4550.00 nan nan nan nan
4560.00 nan nan nan nan
4570.00 nan nan nan nan
4580.00 nan nan nan nan
4590.00 nan nan nan nan
4600.00 nan nan nan nan
4610.00 nan nan nan nan
4620.00 nan nan nan nan
4630.00 nan nan nan nan
4640.00 nan nan nan nan
4650.00 nan nan nan nan
4660.00 nan nan nan nan
4670.00 nan nan nan nan
4680.00 nan nan nan nan
4690.00 nan nan nan nan
4700.00 nan nan nan nan
4710.00 nan nan nan nan
4720.00 nan nan nan nan
4730.00 nan nan nan nan
4740.00 nan nan nan nan
4750.00 nan nan nan nan
4760.00 nan nan nan nan
4770.00 nan nan nan nan
4780.00 nan nan nan nan
4790.00 nan nan nan nan
4800.00 nan nan nan nan
4810.00 nan nan nan nan
4820.00 nan nan nan nan
4830.00 nan nan nan nan
4840.00 nan nan nan nan
4850.00 nan nan nan nan
4860.00 nan nan nan nan
4870.00 nan nan nan nan
4880.00 nan nan nan nan
4890.00 nan nan nan nan
4900.00 nan nan nan nan
4910.00 nan nan nan nan
4920.00 nan nan nan nan
4930.00 nan nan nan nan
4940.00 nan nan nan nan
4950.00 nan nan nan nan
4960.00 nan nan nan nan
4970.00 nan nan nan nan
4980.00 nan nan nan nan
4990.00 nan nan nan nan
5000.00 nan nan nan nan
5010.00 nan nan nan nan
5020.00 nan nan nan nan
5030.00 nan nan nan nan
5040.00 nan nan nan nan
5050.00 nan nan nan nan
5060.00 nan nan nan nan
5070.00 nan nan nan nan
5080.00 nan nan nan nan
5090.00 nan nan nan nan
5100.00 nan nan nan nan
5110.00 nan nan nan nan
5120.00 nan nan nan nan
5130.00 nan nan nan nan
5140.00 nan nan nan nan
5150.00 nan nan nan nan
5160.00 nan nan nan nan
5170.00 nan nan nan nan
5180.00 nan nan nan nan
5190.00 nan nan nan nan
5200.00 nan nan nan nan
5210.00 nan nan nan nan
5220.00 nan nan nan nan
5230.00 nan nan nan nan
5240.00 nan nan nan nan
5250.00 nan nan nan nan
5260.00 nan nan nan nan
5270.00 nan nan nan nan
5280.00 nan nan nan nan
5290.00 nan nan nan nan
5300.00 nan nan nan nan
5310.00 nan nan nan nan
5320.00 nan nan nan nan
5330.00 nan nan nan nan
5340.00 nan nan nan nan
5350.00 nan nan nan nan
5360.00 nan nan nan nan
5370.00 nan nan nan nan
5380.00 nan nan nan nan
5390.00 nan nan nan nan
5400.00 nan nan nan nan
5410.00 nan nan nan nan
5420.00 nan nan nan nan
5430.00 nan nan nan nan
5440.00 nan nan nan nan
5450.00 nan nan nan nan
5460.00 nan nan nan nan
5470.00 nan nan nan nan
5480.00 nan nan nan nan
5490.00 nan nan nan nan
5500.00 nan nan nan nan
5510.00 nan nan nan nan
5520.00 nan nan nan nan
5530.00 nan nan nan nan
5540.00 nan nan nan nan
5550.00 nan nan nan nan
5560.00 nan nan nan nan
5570.00 nan nan nan nan
5580.00 nan nan nan nan
5590.00 nan nan nan nan
5600.00 nan nan nan nan
5610.00 nan nan nan nan
5620.00 nan nan nan nan
5630.00 nan nan nan nan
5640.00 nan nan nan nan
5650.00 nan nan nan nan
5660.00 nan nan nan nan
5670.00 nan nan nan nan
5680.00 nan nan nan nan
5690.00 nan nan nan nan
5700.00 nan nan nan nan
5710.00 nan nan nan nan
5720.00 nan nan nan nan
5730.00 nan nan nan nan
5740.00 nan nan nan nan
5750.00 nan nan nan nan
5760.00 nan nan nan nan
5770.00 nan nan nan nan
5780.00 nan nan nan nan
5790.00 nan nan nan nan
5800.00 nan nan nan nan
5810.00 nan nan nan nan
5820.00 nan nan nan nan
5830.00 nan nan nan nan
5840.00 nan nan nan nan
5850.00 nan nan nan nan
5860.00 nan nan nan nan
5870.00 nan nan nan nan
5880.00 nan nan nan nan
5890.00 nan nan nan nan
5900.00 nan nan nan nan
5910.00 nan nan nan nan
5920.00 nan nan nan nan
5930.00 nan nan nan nan
5940.00 nan nan nan nan
5950.00 nan nan nan nan
5960.00 nan nan nan nan
5970.00 nan nan nan nan
5980.00 nan nan nan nan
5990.00 nan nan nan nan
6000.00 nan nan nan nan
6010.00 nan nan nan nan
6020.00 nan nan nan nan
6030.00 nan nan nan nan
6040.00 nan nan nan nan
6050.00 nan nan nan nan
6060.00 nan nan nan nan
6070.00 nan nan nan nan
6080.00 nan nan nan nan
6090.00 nan nan nan nan
6100.00 nan nan nan nan
6110.00 nan nan nan nan
6120.00 nan nan nan nan
6130.00 nan nan nan nan
6140.00 nan nan nan nan
6150.00 nan nan nan nan
6160.00 nan nan nan nan
6170.00 nan nan nan nan
6180.00 nan nan nan nan
6190.00 nan nan nan nan
6200.00 nan nan nan nan
6210.00 nan nan nan nan
6220.00 nan nan nan nan
6230.00 nan nan nan nan
6240.00 nan nan nan nan
6250.00 nan nan nan nan
6260.00 nan nan nan nan
6270.00 nan nan nan nan
6280.00 nan nan nan nan
6290.00 nan nan nan nan
6300.00 nan nan nan nan
6310.00 nan nan nan nan
6320.00 nan nan nan nan
6330.00 nan nan nan nan
6340.00 nan nan nan nan
6350.00 nan nan nan nan
6360.00 nan nan nan nan
6370.00 nan nan nan nan
6380.00 nan nan nan nan
6390.00 nan nan nan nan
6400.00 nan nan nan nan
6410.00 nan nan nan nan
6420.00 nan nan nan nan
6430.00 nan nan nan nan
6440.00 nan nan nan nan
6450.00 nan nan nan nan
6460.00 nan nan nan nan
6470.00 nan nan nan nan
6480.00 nan nan nan nan
6490.00 nan nan nan nan
6500.00 nan nan nan nan
6510.00 nan nan nan nan
6520.00 nan nan nan nan
6530.00 nan nan nan nan
6540.00 nan nan nan nan
6550.00 nan nan nan nan
6560.00 nan nan nan nan
6570.00 nan nan nan nan
6580.00 nan nan nan nan
6590.00 nan nan nan nan
6600.00 nan nan nan nan
6610.00 nan nan nan nan
6620.00 nan nan nan nan
6630.00 nan nan nan nan
6640.00 nan nan nan nan
6650.00 nan nan nan nan
6660.00 nan nan nan nan
6670.00 nan nan nan nan
6680.00 nan nan nan nan
6690.00 nan nan nan nan
6700.00 nan nan nan nan
6710.00 nan nan nan nan
6720.00 nan nan nan nan
6730.00 nan nan nan nan
6740.00 nan nan nan nan
6750.00 nan nan nan nan
6760.00 nan nan nan nan
6770.00 nan nan nan nan
6780.00 nan nan nan nan
6790.00 nan nan nan nan
6800.00 nan nan nan nan
6810.00 nan nan nan nan
6820.00 nan nan nan nan
6830.00 nan nan nan nan
6840.00 nan nan nan nan
6850.00 nan nan nan nan
6860.00 nan nan nan nan
6870.00 nan nan nan nan
6880.00 nan nan nan nan
6890.00 nan nan nan nan
6900.00 nan nan nan nan
6910.00 nan nan nan nan
6920.00 nan nan nan nan
6930.00 nan nan nan nan
6940.00 nan nan nan nan
6950.00 nan nan nan nan
6960.00 nan nan nan nan
6970.00 nan nan nan nan
6980.00 nan nan nan nan
6990.00 nan nan nan nan
7000.00 nan nan nan nan
7010.00 nan nan nan nan
7020.00 nan nan nan nan
7030.00 nan nan nan nan
7040.00 nan nan nan nan
7050.00 nan nan nan nan
7060.00 nan nan nan nan
7070.00 nan nan nan nan
7080.00 nan nan nan nan
7090.00 nan nan nan nan
7100.00 nan nan nan nan
7110.00 nan nan nan nan
7120.00 nan nan nan nan
7130.00 nan nan nan nan
7140.00 nan nan nan nan
7150.00 nan nan nan nan
7160.00 nan nan nan nan
7170.00 nan nan nan nan
7180.00 nan nan nan nan
7190.00 nan nan nan nan
7200.00 nan nan nan nan
7210.00 nan nan nan nan
7220.00 nan nan nan nan
7230.00 nan nan nan nan
7240.00 nan nan nan nan
7250.00 nan nan nan nan
7260.00 nan nan nan nan
7270.00 nan nan nan nan
7280.00 nan nan nan nan
7290.00 nan nan nan nan
7300.00 nan nan nan nan
7310.00 nan nan nan nan
7320.00 nan nan nan nan
7330.00 nan nan nan nan
7340.00 nan nan nan nan
7350.00 nan nan nan nan
7360.00 nan nan nan nan
7370.00 nan nan nan nan
7380.00 nan nan nan nan
7390.00 nan nan nan nan
7400.00 nan nan nan nan
7410.00 nan nan nan nan
7420.00 nan nan nan nan
7430.00 nan nan nan nan
7440.00 nan nan nan nan
7450.00 nan nan nan nan
7460.00 nan nan nan nan
7470.00 nan nan nan nan
7480.00 nan nan nan nan
7490.00 nan nan nan nan
7500.00 nan nan nan nan
7510.00 nan nan nan nan
7520.00 nan nan nan nan
7530.00 nan nan nan nan
7540.00 nan nan nan nan
7550.00 nan nan nan nan
7560.00 nan nan nan nan
7570.00 nan nan nan nan
7580.00 nan nan nan nan
7590.00 nan nan nan nan
7600.00 nan nan nan nan
7610.00 nan nan nan nan
7620.00 nan nan nan nan
7630.00 nan nan nan nan
7640.00 nan nan nan nan
7650.00 nan nan nan nan
7660.00 nan nan nan nan
7670.00 nan nan nan nan
7680.00 nan nan nan nan
7690.00 nan nan nan nan
7700.00 nan nan nan nan
7710.00 nan nan nan nan
7720.00 nan nan nan nan
7730.00 nan nan nan nan
7740.00 nan nan nan nan
7750.00 nan nan nan nan
7760.00 nan nan nan nan
7770.00 nan nan nan nan
7780.00 nan nan nan nan
7790.00 nan nan nan nan
7800.00 nan nan nan nan
7810.00 nan nan nan nan
7820.00 nan nan nan nan
7830.00 nan nan nan nan
7840.00 nan nan nan nan
7850.00 nan nan nan nan
7860.00 nan nan nan nan
7870.00 nan nan nan nan
7880.00 nan nan nan nan
7890.00 nan nan nan nan
7900.00 nan nan nan nan
7910.00 nan nan nan nan
7920.00 nan nan nan nan
7930.00 nan nan nan nan
7940.00 nan nan nan nan
7950.00 nan nan nan nan
7960.00 nan nan nan nan
7970.00 nan nan nan nan
7980.00 nan nan nan nan
7990.00 nan nan nan nan
