# Averages over distance (i) for each depth (k):
# Depth(m) Speed(m/s) Density(kg/m^3) Salt PSU Theta(degC)
0.00 1527.7873 1024.6487 35.5928 22.0820
10.00 1527.8787 1024.7027 35.5948 22.0507
20.00 1527.7754 1024.7809 35.6003 21.9431
30.00 1527.3124 1024.9001 35.6091 21.6973
40.00 1526.6092 1025.0420 35.6161 21.3631
50.00 1525.8207 1025.1889 35.6208 21.0011
60.00 1525.0123 1025.3343 35.6238 20.6363
70.00 1524.1753 1025.4791 35.6251 20.2655
80.00 1523.3048 1025.6233 35.6246 19.8873
90.00 1522.4275 1025.7639 35.6217 19.5116
100.00 1521.6089 1025.8950 35.6165 19.1616
110.00 1520.9267 1026.0107 35.6097 18.8636
120.00 1520.4280 1026.1085 35.6026 18.6321
130.00 1520.0964 1026.1914 35.5962 18.4600
140.00 1519.8688 1026.2652 35.5902 18.3245
150.00 1519.6587 1026.3364 35.5835 18.1960
160.00 1519.3976 1026.4104 35.5752 18.0512
170.00 1519.0954 1026.4865 35.5654 17.8932
180.00 1518.7013 1026.5667 35.5523 17.7067
190.00 1518.2783 1026.6482 35.5381 17.5113
200.00 1517.8091 1026.7307 35.5216 17.3028
210.00 1517.2983 1026.8140 35.5029 17.0826
220.00 1516.7875 1026.8973 35.4843 16.8624
230.00 1516.2275 1026.9803 35.4628 16.6304
240.00 1515.6493 1027.0631 35.4402 16.3941
250.00 1515.0711 1027.1459 35.4176 16.1578
260.00 1514.4642 1027.2289 35.3936 15.9145
270.00 1513.7724 1027.3121 35.3656 15.6502
280.00 1513.0807 1027.3954 35.3377 15.3860
290.00 1512.3889 1027.4786 35.3097 15.1218
300.00 1511.6961 1027.5619 35.2818 14.8573
310.00 1510.8505 1027.6453 35.2478 14.5574
320.00 1510.0049 1027.7287 35.2138 14.2574
330.00 1509.1593 1027.8121 35.1798 13.9575
340.00 1508.3137 1027.8956 35.1458 13.6576
350.00 1507.4681 1027.9790 35.1118 13.3576
360.00 1506.5727 1028.0579 35.0766 13.0556
370.00 1505.6736 1028.1364 35.0412 12.7535
380.00 1504.7745 1028.2149 35.0059 12.4514
390.00 1503.8754 1028.2935 34.9706 12.1493
400.00 1502.9763 1028.3720 34.9352 11.8471
410.00 1502.0781 1028.4505 34.8999 11.5454
420.00 1501.3158 1028.5197 34.8706 11.2933
430.00 1500.5534 1028.5889 34.8413 11.0413
440.00 1499.7911 1028.6581 34.8119 10.7892
450.00 1499.0287 1028.7273 34.7826 10.5372
460.00 1498.2663 1028.7965 34.7533 10.2852
470.00 1497.5040 1028.8657 34.7239 10.0331
480.00 1496.8021 1028.9328 34.6969 9.7992
490.00 1496.2787 1028.9935 34.6768 9.6186
500.00 1495.7554 1029.0543 34.6568 9.4380
510.00 1495.2320 1029.1150 34.6367 9.2575
520.00 1494.7087 1029.1758 34.6166 9.0769
530.00 1494.1853 1029.2365 34.5965 8.8963
540.00 1493.6620 1029.2973 34.5764 8.7157
550.00 1493.1386 1029.3580 34.5563 8.5351
560.00 1492.7705 1029.4151 34.5421 8.3974
570.00 1492.4602 1029.4709 34.5299 8.2755
580.00 1492.1498 1029.5266 34.5178 8.1537
590.00 1491.8394 1029.5823 34.5057 8.0318
600.00 1491.5291 1029.6381 34.4936 7.9100
610.00 1491.2187 1029.6938 34.4814 7.7881
620.00 1490.9083 1029.7496 34.4693 7.6663
630.00 1490.5980 1029.8053 34.4572 7.5444
640.00 1490.3557 1029.8600 34.4478 7.4406
650.00 1490.1746 1029.9137 34.4409 7.3530
660.00 1489.9935 1029.9675 34.4339 7.2653
670.00 1489.8124 1030.0212 34.4270 7.1777
680.00 1489.6314 1030.0750 34.4200 7.0901
690.00 1489.4503 1030.1287 34.4131 7.0025
700.00 1489.2692 1030.1824 34.4062 6.9148
710.00 1489.0882 1030.2362 34.3992 6.8272
720.00 1488.9071 1030.2899 34.3923 6.7396
730.00 1488.7688 1030.3436 34.3878 6.6632
740.00 1488.6440 1030.3973 34.3841 6.5903
750.00 1488.5193 1030.4510 34.3803 6.5174
760.00 1488.3945 1030.5046 34.3766 6.4445
770.00 1488.2698 1030.5583 34.3728 6.3716
780.00 1488.1450 1030.6120 34.3691 6.2987
790.00 1488.0203 1030.6656 34.3654 6.2258
800.00 1487.8955 1030.7193 34.3616 6.1529
810.00 1487.7707 1030.7730 34.3579 6.0800
820.00 1487.6558 1030.8272 34.3555 6.0098
830.00 1487.5489 1030.8817 34.3541 5.9417
840.00 1487.4420 1030.9363 34.3528 5.8737
850.00 1487.3351 1030.9909 34.3514 5.8056
860.00 1487.2282 1031.0455 34.3501 5.7375
870.00 1487.1213 1031.1001 34.3487 5.6695
880.00 1487.0144 1031.1547 34.3474 5.6014
890.00 1486.9075 1031.2093 34.3461 5.5334
900.00 1486.8005 1031.2638 34.3447 5.4653
910.00 1486.6939 1031.3185 34.3434 5.3973
920.00 1486.5963 1031.3741 34.3442 5.3319
930.00 1486.4986 1031.4298 34.3450 5.2665
940.00 1486.4010 1031.4855 34.3458 5.2011
950.00 1486.3034 1031.5411 34.3466 5.1356
960.00 1486.2058 1031.5968 34.3474 5.0702
970.00 1486.1082 1031.6525 34.3482 5.0048
980.00 1486.0105 1031.7081 34.3490 4.9394
990.00 1485.9129 1031.7638 34.3498 4.8740
1000.00 1485.8153 1031.8195 34.3506 4.8085
1010.00 1485.7233 1031.8753 34.3519 4.7446
1020.00 1485.6454 1031.9315 34.3545 4.6843
1030.00 1485.5676 1031.9878 34.3572 4.6240
1040.00 1485.4897 1032.0440 34.3598 4.5637
1050.00 1485.4119 1032.1002 34.3624 4.5034
1060.00 1485.3340 1032.1565 34.3651 4.4431
1070.00 1485.2561 1032.2127 34.3677 4.3828
1080.00 1485.1783 1032.2689 34.3704 4.3225
1090.00 1485.1004 1032.3252 34.3730 4.2622
1100.00 1485.0226 1032.3814 34.3756 4.2019
1110.00 1484.9591 1032.4375 34.3788 4.1451
1120.00 1484.9165 1032.4934 34.3827 4.0936
1130.00 1484.8739 1032.5494 34.3866 4.0420
1140.00 1484.8313 1032.6053 34.3905 3.9904
1150.00 1484.7888 1032.6612 34.3944 3.9388
1160.00 1484.7462 1032.7171 34.3983 3.8873
1170.00 1484.7036 1032.7731 34.4021 3.8357
1180.00 1484.6610 1032.8290 34.4060 3.7841
1190.00 1484.6184 1032.8849 34.4099 3.7325
1200.00 1484.5758 1032.9408 34.4138 3.6810
1210.00 1484.5533 1032.9963 34.4179 3.6342
1220.00 1484.5557 1033.0511 34.4223 3.5936
1230.00 1484.5581 1033.1059 34.4267 3.5529
1240.00 1484.5605 1033.1607 34.4311 3.5122
1250.00 1484.5629 1033.2155 34.4354 3.4715
1260.00 1484.5653 1033.2704 34.4398 3.4308
1270.00 1484.5677 1033.3252 34.4442 3.3902
1280.00 1484.5701 1033.3800 34.4486 3.3495
1290.00 1484.5725 1033.4348 34.4530 3.3088
1300.00 1484.5749 1033.4896 34.4573 3.2681
1310.00 1484.5943 1033.5439 34.4616 3.2315
1320.00 1484.6412 1033.5971 34.4658 3.2015
1330.00 1484.6882 1033.6504 34.4700 3.1714
1340.00 1484.7352 1033.7037 34.4742 3.1414
1350.00 1484.7822 1033.7569 34.4784 3.1114
1360.00 1484.8292 1033.8102 34.4826 3.0814
1370.00 1484.8761 1033.8635 34.4868 3.0514
1380.00 1484.9231 1033.9168 34.4910 3.0214
1390.00 1484.9701 1033.9700 34.4951 2.9914
1400.00 1485.0171 1034.0233 34.4993 2.9613
1410.00 1485.0671 1034.0764 34.5035 2.9321
1420.00 1485.1501 1034.1281 34.5070 2.9106
1430.00 1485.2331 1034.1797 34.5106 2.8892
1440.00 1485.3160 1034.2314 34.5142 2.8678
1450.00 1485.3990 1034.2831 34.5177 2.8463
1460.00 1485.4820 1034.3347 34.5213 2.8249
1470.00 1485.5650 1034.3864 34.5248 2.8035
1480.00 1485.6480 1034.4380 34.5284 2.7821
1490.00 1485.7310 1034.4897 34.5320 2.7606
1500.00 1485.8139 1034.5413 34.5355 2.7392
1510.00 1485.8969 1034.5930 34.5391 2.7178
1520.00 1485.9872 1034.6442 34.5424 2.6981
1530.00 1486.0953 1034.6944 34.5452 2.6827
1540.00 1486.2034 1034.7446 34.5479 2.6673
1550.00 1486.3115 1034.7948 34.5506 2.6519
1560.00 1486.4196 1034.8450 34.5534 2.6365
1570.00 1486.5277 1034.8952 34.5561 2.6210
1580.00 1486.6357 1034.9454 34.5589 2.6056
1590.00 1486.7438 1034.9956 34.5616 2.5902
1600.00 1486.8519 1035.0458 34.5643 2.5748
1610.00 1486.9600 1035.0960 34.5671 2.5594
1620.00 1487.0681 1035.1462 34.5698 2.5440
1630.00 1487.1762 1035.1964 34.5726 2.5286
1640.00 1487.2936 1035.2459 34.5748 2.5154
1650.00 1487.4177 1035.2949 34.5768 2.5038
1660.00 1487.5418 1035.3439 34.5787 2.4922
1670.00 1487.6658 1035.3929 34.5806 2.4806
1680.00 1487.7899 1035.4420 34.5825 2.4691
1690.00 1487.9140 1035.4910 34.5845 2.4575
1700.00 1488.0381 1035.5400 34.5864 2.4459
1710.00 1488.1622 1035.5890 34.5883 2.4343
1720.00 1488.2863 1035.6381 34.5903 2.4228
1730.00 1488.4104 1035.6871 34.5922 2.4112
1740.00 1488.5344 1035.7361 34.5941 2.3996
1750.00 1488.6585 1035.7851 34.5961 2.3880
1760.00 1488.7826 1035.8342 34.5980 2.3765
1770.00 1488.9114 1035.8828 34.5996 2.3660
1780.00 1489.0450 1035.9309 34.6009 2.3567
1790.00 1489.1787 1035.9791 34.6022 2.3474
1800.00 1489.3123 1036.0273 34.6036 2.3381
1810.00 1489.4460 1036.0755 34.6049 2.3288
1820.00 1489.5797 1036.1237 34.6062 2.3195
1830.00 1489.7133 1036.1718 34.6075 2.3102
1840.00 1489.8470 1036.2200 34.6088 2.3009
1850.00 1489.9807 1036.2682 34.6101 2.2916
1860.00 1490.1143 1036.3164 34.6114 2.2823
1870.00 1490.2480 1036.3646 34.6127 2.2730
1880.00 1490.3817 1036.4127 34.6141 2.2637
1890.00 1490.5153 1036.4609 34.6154 2.2544
1900.00 1490.6490 1036.5091 34.6167 2.2451
1910.00 1490.7827 1036.5573 34.6180 2.2358
1920.00 1490.9196 1036.6051 34.6191 2.2272
1930.00 1491.0589 1036.6528 34.6200 2.2192
1940.00 1491.1982 1036.7004 34.6209 2.2111
1950.00 1491.3375 1036.7480 34.6219 2.2031
1960.00 1491.4768 1036.7957 34.6228 2.1951
1970.00 1491.6161 1036.8433 34.6237 2.1870
1980.00 1491.7554 1036.8909 34.6246 2.1790
1990.00 1491.8947 1036.9386 34.6256 2.1710
2000.00 1492.0340 1036.9862 34.6265 2.1629
2010.00 1492.1733 1037.0338 34.6274 2.1549
2020.00 1492.3126 1037.0815 34.6283 2.1469
2030.00 1492.4519 1037.1291 34.6293 2.1389
2040.00 1492.5912 1037.1767 34.6302 2.1308
2050.00 1492.7306 1037.2244 34.6311 2.1228
2060.00 1492.8699 1037.2720 34.6320 2.1148
2070.00 1493.0092 1037.3196 34.6330 2.1067
2080.00 1493.1485 1037.3673 34.6339 2.0987
2090.00 1493.2901 1037.4147 34.6347 2.0911
2100.00 1493.4332 1037.4620 34.6354 2.0839
2110.00 1493.5763 1037.5092 34.6361 2.0766
2120.00 1493.7195 1037.5565 34.6368 2.0694
2130.00 1493.8626 1037.6038 34.6375 2.0621
2140.00 1494.0058 1037.6511 34.6382 2.0549
2150.00 1494.1489 1037.6983 34.6389 2.0476
2160.00 1494.2921 1037.7456 34.6397 2.0404
2170.00 1494.4352 1037.7929 34.6404 2.0331
2180.00 1494.5784 1037.8401 34.6411 2.0259
2190.00 1494.7215 1037.8874 34.6418 2.0186
2200.00 1494.8647 1037.9347 34.6425 2.0114
2210.00 1495.0078 1037.9820 34.6432 2.0041
2220.00 1495.1510 1038.0292 34.6439 1.9969
2230.00 1495.2941 1038.0765 34.6446 1.9896
2240.00 1495.4373 1038.1238 34.6453 1.9824
2250.00 1495.5804 1038.1710 34.6461 1.9751
2260.00 1495.7236 1038.2183 34.6468 1.9679
2270.00 1495.8667 1038.2656 34.6475 1.9606
2280.00 1496.0111 1038.3128 34.6482 1.9536
2290.00 1496.1575 1038.3598 34.6488 1.9469
2300.00 1496.3039 1038.4068 34.6494 1.9403
2310.00 1496.4503 1038.4538 34.6500 1.9336
2320.00 1496.5966 1038.5008 34.6507 1.9269
2330.00 1496.7430 1038.5478 34.6513 1.9203
2340.00 1496.8894 1038.5949 34.6519 1.9136
2350.00 1497.0358 1038.6419 34.6525 1.9069
2360.00 1497.1822 1038.6889 34.6532 1.9003
2370.00 1497.3286 1038.7359 34.6538 1.8936
2380.00 1497.4750 1038.7829 34.6544 1.8869
2390.00 1497.6214 1038.8299 34.6550 1.8803
2400.00 1497.7678 1038.8770 34.6557 1.8736
2410.00 1497.9142 1038.9240 34.6563 1.8669
2420.00 1498.0606 1038.9710 34.6569 1.8603
2430.00 1498.2069 1039.0180 34.6575 1.8536
2440.00 1498.3533 1039.0650 34.6582 1.8469
2450.00 1498.4997 1039.1120 34.6588 1.8403
2460.00 1498.6461 1039.1591 34.6594 1.8336
2470.00 1498.7925 1039.2061 34.6600 1.8269
2480.00 1498.9389 1039.2531 34.6607 1.8203
2490.00 1499.0853 1039.3001 34.6613 1.8136
2500.00 1499.2348 1039.3469 34.6619 1.8074
2510.00 1499.3848 1039.3937 34.6625 1.8014
2520.00 1499.5347 1039.4405 34.6631 1.7953
2530.00 1499.6847 1039.4873 34.6637 1.7892
2540.00 1499.8346 1039.5341 34.6644 1.7832
2550.00 1499.9846 1039.5809 34.6650 1.7771
2560.00 1500.1345 1039.6277 34.6656 1.7711
2570.00 1500.2845 1039.6745 34.6662 1.7650
2580.00 1500.4344 1039.7213 34.6668 1.7589
2590.00 1500.5844 1039.7681 34.6674 1.7529
2600.00 1500.7343 1039.8149 34.6681 1.7468
2610.00 1500.8843 1039.8617 34.6687 1.7407
2620.00 1501.0343 1039.9085 34.6693 1.7347
2630.00 1501.1842 1039.9553 34.6699 1.7286
2640.00 1501.3342 1040.0021 34.6705 1.7225
2650.00 1501.4841 1040.0489 34.6711 1.7165
2660.00 1501.6341 1040.0957 34.6718 1.7104
2670.00 1501.7840 1040.1425 34.6724 1.7043
2680.00 1501.9340 1040.1893 34.6730 1.6983
2690.00 1502.0839 1040.2361 34.6736 1.6922
2700.00 1502.2339 1040.2829 34.6742 1.6861
2710.00 1502.3839 1040.3297 34.6748 1.6801
2720.00 1502.5338 1040.3765 34.6755 1.6740
2730.00 1502.6839 1040.4233 34.6761 1.6680
2740.00 1502.8357 1040.4700 34.6767 1.6621
2750.00 1502.9874 1040.5166 34.6774 1.6562
2760.00 1503.1392 1040.5633 34.6780 1.6503
2770.00 1503.2909 1040.6100 34.6787 1.6444
2780.00 1503.4427 1040.6566 34.6793 1.6385
2790.00 1503.5945 1040.7033 34.6799 1.6326
2800.00 1503.7462 1040.7499 34.6806 1.6267
2810.00 1503.8980 1040.7966 34.6812 1.6208
2820.00 1504.0498 1040.8432 34.6819 1.6149
2830.00 1504.2015 1040.8899 34.6825 1.6090
2840.00 1504.3533 1040.9365 34.6832 1.6032
2850.00 1504.5051 1040.9832 34.6838 1.5973
2860.00 1504.6568 1041.0299 34.6844 1.5914
2870.00 1504.8086 1041.0765 34.6851 1.5855
2880.00 1504.9603 1041.1232 34.6857 1.5796
2890.00 1505.1121 1041.1698 34.6864 1.5737
2900.00 1505.2639 1041.2165 34.6870 1.5678
2910.00 1505.4156 1041.2631 34.6877 1.5619
2920.00 1505.5674 1041.3098 34.6883 1.5560
2930.00 1505.7192 1041.3564 34.6889 1.5501
2940.00 1505.8709 1041.4031 34.6896 1.5442
2950.00 1506.0227 1041.4497 34.6902 1.5384
2960.00 1506.1744 1041.4964 34.6909 1.5325
2970.00 1506.3262 1041.5431 34.6915 1.5266
2980.00 1506.4780 1041.5897 34.6922 1.5207
2990.00 1506.6297 1041.6364 34.6928 1.5148
3000.00 1506.7805 1041.6829 34.6934 1.5085
3010.00 1506.9312 1041.7294 34.6939 1.5021
3020.00 1507.0819 1041.7759 34.6945 1.4958
3030.00 1507.2326 1041.8224 34.6950 1.4894
3040.00 1507.3834 1041.8689 34.6956 1.4831
3050.00 1507.5341 1041.9154 34.6961 1.4768
3060.00 1507.6848 1041.9619 34.6967 1.4704
3070.00 1507.8355 1042.0084 34.6973 1.4641
3080.00 1507.9862 1042.0549 34.6978 1.4577
3090.00 1508.1369 1042.1014 34.6984 1.4514
3100.00 1508.2877 1042.1479 34.6989 1.4451
3110.00 1508.4384 1042.1944 34.6995 1.4387
3120.00 1508.5891 1042.2409 34.7001 1.4324
3130.00 1508.7398 1042.2874 34.7006 1.4261
3140.00 1508.8905 1042.3339 34.7012 1.4197
3150.00 1509.0413 1042.3804 34.7017 1.4134
3160.00 1509.1920 1042.4269 34.7023 1.4070
3170.00 1509.3427 1042.4734 34.7028 1.4007
3180.00 1509.4934 1042.5199 34.7034 1.3944
3190.00 1509.6441 1042.5665 34.7040 1.3880
3200.00 1509.7948 1042.6130 34.7045 1.3817
3210.00 1509.9456 1042.6595 34.7051 1.3753
3220.00 1510.0963 1042.7060 34.7056 1.3690
3230.00 1510.2470 1042.7525 34.7062 1.3627
3240.00 1510.3977 1042.7990 34.7067 1.3563
3250.00 1510.5484 1042.8455 34.7073 1.3500
3260.00 1510.6992 1042.8920 34.7079 1.3436
3270.00 1510.8499 1042.9385 34.7084 1.3373
3280.00 1511.0001 1042.9848 34.7089 1.3307
3290.00 1511.1499 1043.0311 34.7092 1.3240
3300.00 1511.2998 1043.0773 34.7095 1.3173
3310.00 1511.4496 1043.1236 34.7099 1.3105
3320.00 1511.5994 1043.1698 34.7102 1.3038
3330.00 1511.7492 1043.2161 34.7105 1.2971
3340.00 1511.8991 1043.2623 34.7109 1.2903
3350.00 1512.0489 1043.3085 34.7112 1.2836
3360.00 1512.1987 1043.3548 34.7116 1.2769
3370.00 1512.3486 1043.4010 34.7119 1.2702
3380.00 1512.4984 1043.4473 34.7122 1.2634
3390.00 1512.6482 1043.4935 34.7126 1.2567
3400.00 1512.7981 1043.5398 34.7129 1.2500
3410.00 1512.9479 1043.5860 34.7132 1.2432
3420.00 1513.0977 1043.6322 34.7136 1.2365
3430.00 1513.2476 1043.6785 34.7139 1.2298
3440.00 1513.3974 1043.7247 34.7142 1.2230
3450.00 1513.5472 1043.7710 34.7146 1.2163
3460.00 1513.6971 1043.8172 34.7149 1.2096
3470.00 1513.8469 1043.8635 34.7153 1.2028
3480.00 1513.9967 1043.9097 34.7156 1.1961
3490.00 1514.1466 1043.9559 34.7159 1.1894
3500.00 1514.2964 1044.0022 34.7163 1.1826
3510.00 1514.4462 1044.0484 34.7166 1.1759
3520.00 1514.5960 1044.0947 34.7169 1.1692
3530.00 1514.7459 1044.1409 34.7173 1.1624
3540.00 1514.8957 1044.1872 34.7176 1.1557
3550.00 1515.0455 1044.2334 34.7180 1.1490
3560.00 1515.1954 1044.2796 34.7183 1.1422
3570.00 1515.3452 1044.3259 34.7186 1.1355
3580.00 1515.4950 1044.3721 34.7190 1.1288
3590.00 1515.6476 1044.4180 34.7191 1.1225
3600.00 1515.8005 1044.4638 34.7192 1.1162
3610.00 1515.9535 1044.5096 34.7193 1.1100
3620.00 1516.1065 1044.5555 34.7194 1.1037
3630.00 1516.2594 1044.6013 34.7195 1.0975
3640.00 1516.4124 1044.6471 34.7196 1.0912
3650.00 1516.5653 1044.6929 34.7197 1.0850
3660.00 1516.7183 1044.7388 34.7198 1.0787
3670.00 1516.8712 1044.7846 34.7198 1.0724
3680.00 1517.0242 1044.8304 34.7199 1.0662
3690.00 1517.1771 1044.8762 34.7200 1.0599
3700.00 1517.3301 1044.9221 34.7201 1.0537
3710.00 1517.4830 1044.9679 34.7202 1.0474
3720.00 1517.6360 1045.0137 34.7203 1.0412
3730.00 1517.7889 1045.0595 34.7204 1.0349
3740.00 1517.9419 1045.1053 34.7205 1.0287
3750.00 1518.0948 1045.1512 34.7206 1.0224
3760.00 1518.2478 1045.1970 34.7207 1.0162
3770.00 1518.4007 1045.2428 34.7208 1.0099
3780.00 1518.5537 1045.2886 34.7209 1.0037
3790.00 1518.7066 1045.3345 34.7210 0.9974
3800.00 1518.8596 1045.3803 34.7211 0.9912
3810.00 1519.0125 1045.4261 34.7212 0.9849
3820.00 1519.1655 1045.4719 34.7213 0.9787
3830.00 1519.3184 1045.5178 34.7214 0.9724
3840.00 1519.4714 1045.5636 34.7215 0.9661
3850.00 1519.6243 1045.6094 34.7215 0.9599
3860.00 1519.7773 1045.6552 34.7216 0.9536
3870.00 1519.9302 1045.7010 34.7217 0.9474
3880.00 1520.0832 1045.7469 34.7218 0.9411
3890.00 1520.2362 1045.7927 34.7219 0.9349
3900.00 1520.3891 1045.8385 34.7220 0.9286
3910.00 1520.5421 1045.8843 34.7221 0.9224
3920.00 1520.7015 1045.9297 34.7221 0.9173
3930.00 1520.8618 1045.9750 34.7220 0.9124
3940.00 1521.0221 1046.0203 34.7220 0.9076
3950.00 1521.1825 1046.0656 34.7219 0.9027
3960.00 1521.3428 1046.1109 34.7219 0.8978
3970.00 1521.5031 1046.1562 34.7218 0.8929
3980.00 1521.6635 1046.2015 34.7218 0.8880
3990.00 1521.8238 1046.2468 34.7217 0.8832
4000.00 1521.9841 1046.2921 34.7217 0.8783
4010.00 1522.1445 1046.3374 34.7216 0.8734
4020.00 1522.3048 1046.3827 34.7216 0.8685
4030.00 1522.4651 1046.4280 34.7215 0.8636
4040.00 1522.6255 1046.4733 34.7215 0.8588
4050.00 1522.7858 1046.5186 34.7214 0.8539
4060.00 1522.9461 1046.5639 34.7214 0.8490
4070.00 1523.1065 1046.6092 34.7213 0.8441
4080.00 1523.2668 1046.6545 34.7213 0.8392
4090.00 1523.4271 1046.6998 34.7212 0.8344
4100.00 1523.5875 1046.7451 34.7212 0.8295
4110.00 1523.7478 1046.7904 34.7211 0.8246
4120.00 1523.9081 1046.8357 34.7211 0.8197
4130.00 1524.0685 1046.8810 34.7210 0.8148
4140.00 1524.2288 1046.9263 34.7210 0.8099
4150.00 1524.3891 1046.9716 34.7209 0.8051
4160.00 1524.5495 1047.0169 34.7209 0.8002
4170.00 1524.7098 1047.0622 34.7208 0.7953
4180.00 1524.8701 1047.1075 34.7208 0.7904
4190.00 1525.0305 1047.1528 34.7207 0.7855
4200.00 1525.1908 1047.1981 34.7207 0.7807
4210.00 1525.3511 1047.2434 34.7206 0.7758
4220.00 1525.5115 1047.2887 34.7206 0.7709
4230.00 1525.6718 1047.3340 34.7205 0.7660
4240.00 1525.8321 1047.3793 34.7205 0.7611
4250.00 1525.9925 1047.4246 34.7204 0.7563
4260.00 1526.1528 1047.4699 34.7204 0.7514
4270.00 1526.3186 1047.5148 34.7203 0.7475
4280.00 1526.4884 1047.5596 34.7202 0.7444
4290.00 1526.6582 1047.6043 34.7201 0.7413
4300.00 1526.8280 1047.6491 34.7201 0.7382
4310.00 1526.9979 1047.6938 34.7200 0.7351
4320.00 1527.1677 1047.7386 34.7199 0.7321
4330.00 1527.3375 1047.7833 34.7198 0.7290
4340.00 1527.5073 1047.8281 34.7198 0.7259
4350.00 1527.6771 1047.8728 34.7197 0.7228
4360.00 1527.8469 1047.9175 34.7196 0.7197
4370.00 1528.0167 1047.9623 34.7195 0.7166
4380.00 1528.1866 1048.0070 34.7194 0.7135
4390.00 1528.3564 1048.0518 34.7194 0.7104
4400.00 1528.5262 1048.0965 34.7193 0.7073
4410.00 1528.6960 1048.1413 34.7192 0.7042
4420.00 1528.8658 1048.1860 34.7191 0.7011
4430.00 1529.0356 1048.2307 34.7191 0.6980
4440.00 1529.2055 1048.2755 34.7190 0.6949
4450.00 1529.3753 1048.3202 34.7189 0.6918
4460.00 1529.5451 1048.3650 34.7188 0.6887
4470.00 1529.7149 1048.4097 34.7187 0.6857
4480.00 1529.8847 1048.4545 34.7187 0.6826
4490.00 1530.0545 1048.4992 34.7186 0.6795
4500.00 1530.2243 1048.5440 34.7185 0.6764
4510.00 1530.3942 1048.5887 34.7184 0.6733
4520.00 1530.5640 1048.6334 34.7184 0.6702
4530.00 1530.7338 1048.6782 34.7183 0.6671
4540.00 1530.9036 1048.7229 34.7182 0.6640
4550.00 1531.0734 1048.7677 34.7181 0.6609
4560.00 1531.2432 1048.8124 34.7181 0.6578
4570.00 1531.4130 1048.8572 34.7180 0.6547
4580.00 1531.5829 1048.9019 34.7179 0.6516
4590.00 1531.7527 1048.9466 34.7178 0.6485
4600.00 1531.9225 1048.9914 34.7177 0.6454
4610.00 1532.0923 1049.0361 34.7177 0.6423
4620.00 1532.2621 1049.0809 34.7176 0.6392
4630.00 1532.4319 1049.1256 34.7175 0.6362
4640.00 1532.6018 1049.1704 34.7174 0.6331
4650.00 1532.7803 1049.2146 34.7174 0.6316
4660.00 1532.9591 1049.2588 34.7173 0.6302
4670.00 1533.1379 1049.3030 34.7173 0.6287
4680.00 1533.3168 1049.3472 34.7173 0.6273
4690.00 1533.4956 1049.3914 34.7172 0.6259
4700.00 1533.6744 1049.4356 34.7172 0.6244
4710.00 1533.8532 1049.4798 34.7171 0.6230
4720.00 1534.0320 1049.5240 34.7171 0.6216
4730.00 1534.2108 1049.5682 34.7170 0.6202
4740.00 1534.3896 1049.6124 34.7170 0.6187
4750.00 1534.5684 1049.6566 34.7169 0.6173
4760.00 1534.7472 1049.7008 34.7169 0.6159
4770.00 1534.9260 1049.7450 34.7168 0.6145
4780.00 1535.1048 1049.7891 34.7168 0.6130
4790.00 1535.2836 1049.8333 34.7167 0.6116
4800.00 1535.4624 1049.8775 34.7167 0.6102
4810.00 1535.6412 1049.9217 34.7166 0.6087
4820.00 1535.8200 1049.9659 34.7166 0.6073
4830.00 1535.9988 1050.0101 34.7166 0.6059
4840.00 1536.1776 1050.0543 34.7165 0.6045
4850.00 1536.3565 1050.0985 34.7165 0.6030
4860.00 1536.5353 1050.1427 34.7164 0.6016
4870.00 1536.7141 1050.1869 34.7164 0.6002
4880.00 1536.8929 1050.2311 34.7163 0.5987
4890.00 1537.0717 1050.2753 34.7163 0.5973
4900.00 1537.2505 1050.3195 34.7162 0.5959
4910.00 1537.4293 1050.3637 34.7162 0.5945
4920.00 1537.6081 1050.4079 34.7161 0.5930
4930.00 1537.7869 1050.4521 34.7161 0.5916
4940.00 1537.9657 1050.4963 34.7160 0.5902
4950.00 1538.1445 1050.5405 34.7160 0.5887
4960.00 1538.3233 1050.5847 34.7160 0.5873
4970.00 1538.5021 1050.6289 34.7159 0.5859
4980.00 1538.6809 1050.6731 34.7159 0.5845
4990.00 1538.8597 1050.7173 34.7158 0.5830
5000.00 1539.0385 1050.7615 34.7158 0.5816
5010.00 1539.2173 1050.8057 34.7157 0.5802
5020.00 1539.3962 1050.8499 34.7157 0.5788
5030.00 1539.5750 1050.8941 34.7156 0.5773
5040.00 1539.7543 1050.9383 34.7156 0.5760
5050.00 1539.9409 1050.9819 34.7156 0.5760
5060.00 1540.1274 1051.0256 34.7156 0.5759
5070.00 1540.3139 1051.0692 34.7156 0.5759
5080.00 1540.5004 1051.1129 34.7156 0.5759
5090.00 1540.6870 1051.1565 34.7156 0.5759
5100.00 1540.8735 1051.2002 34.7156 0.5758
5110.00 1541.0600 1051.2439 34.7156 0.5758
5120.00 1541.2465 1051.2875 34.7156 0.5758
5130.00 1541.4331 1051.3312 34.7156 0.5758
5140.00 1541.6196 1051.3748 34.7156 0.5757
5150.00 1541.8061 1051.4185 34.7156 0.5757
5160.00 1541.9926 1051.4621 34.7156 0.5757
5170.00 1542.1792 1051.5058 34.7156 0.5757
5180.00 1542.3657 1051.5495 34.7156 0.5756
5190.00 1542.5522 1051.5931 34.7156 0.5756
5200.00 1542.7387 1051.6368 34.7156 0.5756
5210.00 1542.9253 1051.6804 34.7156 0.5755
5220.00 1543.1118 1051.7241 34.7156 0.5755
5230.00 1543.2983 1051.7677 34.7156 0.5755
5240.00 1543.4849 1051.8114 34.7156 0.5755
5250.00 1543.6714 1051.8551 34.7156 0.5754
5260.00 1543.8579 1051.8987 34.7156 0.5754
5270.00 1544.0444 1051.9424 34.7156 0.5754
5280.00 1544.2310 1051.9860 34.7156 0.5754
5290.00 1544.4175 1052.0297 34.7156 0.5753
5300.00 1544.6040 1052.0734 34.7156 0.5753
5310.00 1544.7905 1052.1170 34.7156 0.5753
5320.00 1544.9771 1052.1607 34.7156 0.5753
5330.00 1545.1636 1052.2043 34.7156 0.5752
5340.00 1545.3501 1052.2480 34.7156 0.5752
5350.00 1545.5366 1052.2916 34.7155 0.5752
5360.00 1545.7232 1052.3353 34.7155 0.5751
5370.00 1545.9097 1052.3790 34.7155 0.5751
5380.00 1546.0962 1052.4226 34.7155 0.5751
5390.00 1546.2827 1052.4663 34.7155 0.5751
5400.00 1546.4693 1052.5099 34.7155 0.5750
5410.00 1546.6558 1052.5536 34.7155 0.5750
5420.00 1546.8423 1052.5972 34.7155 0.5750
5430.00 1547.0288 1052.6409 34.7155 0.5750
5440.00 1547.2154 1052.6846 34.7155 0.5749
5450.00 1547.4019 1052.7282 34.7155 0.5749
5460.00 1547.5884 1052.7719 34.7155 0.5749
5470.00 nan nan nan nan
5480.00 nan nan nan nan
5490.00 nan nan nan nan
5500.00 nan nan nan nan
5510.00 nan nan nan nan
5520.00 nan nan nan nan
5530.00 nan nan nan nan
5540.00 nan nan nan nan
5550.00 nan nan nan nan
5560.00 nan nan nan nan
5570.00 nan nan nan nan
5580.00 nan nan nan nan
5590.00 nan nan nan nan
5600.00 nan nan nan nan
5610.00 nan nan nan nan
5620.00 nan nan nan nan
5630.00 nan nan nan nan
5640.00 nan nan nan nan
5650.00 nan nan nan nan
5660.00 nan nan nan nan
5670.00 nan nan nan nan
5680.00 nan nan nan nan
5690.00 nan nan nan nan
5700.00 nan nan nan nan
5710.00 nan nan nan nan
5720.00 nan nan nan nan
5730.00 nan nan nan nan
5740.00 nan nan nan nan
5750.00 nan nan nan nan
5760.00 nan nan nan nan
5770.00 nan nan nan nan
5780.00 nan nan nan nan
5790.00 nan nan nan nan
5800.00 nan nan nan nan
5810.00 nan nan nan nan
5820.00 nan nan nan nan
5830.00 nan nan nan nan
5840.00 nan nan nan nan
5850.00 nan nan nan nan
5860.00 nan nan nan nan
5870.00 nan nan nan nan
5880.00 nan nan nan nan
5890.00 nan nan nan nan
5900.00 nan nan nan nan
5910.00 nan nan nan nan
5920.00 nan nan nan nan
5930.00 nan nan nan nan
5940.00 nan nan nan nan
5950.00 nan nan nan nan
5960.00 nan nan nan nan
5970.00 nan nan nan nan
5980.00 nan nan nan nan
5990.00 nan nan nan nan
6000.00 nan nan nan nan
6010.00 nan nan nan nan
6020.00 nan nan nan nan
6030.00 nan nan nan nan
6040.00 nan nan nan nan
6050.00 nan nan nan nan
6060.00 nan nan nan nan
6070.00 nan nan nan nan
6080.00 nan nan nan nan
6090.00 nan nan nan nan
6100.00 nan nan nan nan
6110.00 nan nan nan nan
6120.00 nan nan nan nan
6130.00 nan nan nan nan
6140.00 nan nan nan nan
6150.00 nan nan nan nan
6160.00 nan nan nan nan
6170.00 nan nan nan nan
6180.00 nan nan nan nan
6190.00 nan nan nan nan
6200.00 nan nan nan nan
6210.00 nan nan nan nan
6220.00 nan nan nan nan
6230.00 nan nan nan nan
6240.00 nan nan nan nan
6250.00 nan nan nan nan
6260.00 nan nan nan nan
6270.00 nan nan nan nan
6280.00 nan nan nan nan
6290.00 nan nan nan nan
6300.00 nan nan nan nan
6310.00 nan nan nan nan
6320.00 nan nan nan nan
6330.00 nan nan nan nan
6340.00 nan nan nan nan
6350.00 nan nan nan nan
6360.00 nan nan nan nan
6370.00 nan nan nan nan
6380.00 nan nan nan nan
6390.00 nan nan nan nan
6400.00 nan nan nan nan
6410.00 nan nan nan nan
6420.00 nan nan nan nan
6430.00 nan nan nan nan
6440.00 nan nan nan nan
6450.00 nan nan nan nan
6460.00 nan nan nan nan
6470.00 nan nan nan nan
6480.00 nan nan nan nan
6490.00 nan nan nan nan
6500.00 nan nan nan nan
6510.00 nan nan nan nan
6520.00 nan nan nan nan
6530.00 nan nan nan nan
6540.00 nan nan nan nan
6550.00 nan nan nan nan
6560.00 nan nan nan nan
6570.00 nan nan nan nan
6580.00 nan nan nan nan
6590.00 nan nan nan nan
6600.00 nan nan nan nan
6610.00 nan nan nan nan
6620.00 nan nan nan nan
6630.00 nan nan nan nan
6640.00 nan nan nan nan
6650.00 nan nan nan nan
6660.00 nan nan nan nan
6670.00 nan nan nan nan
6680.00 nan nan nan nan
6690.00 nan nan nan nan
6700.00 nan nan nan nan
6710.00 nan nan nan nan
6720.00 nan nan nan nan
6730.00 nan nan nan nan
6740.00 nan nan nan nan
6750.00 nan nan nan nan
6760.00 nan nan nan nan
6770.00 nan nan nan nan
6780.00 nan nan nan nan
6790.00 nan nan nan nan
6800.00 nan nan nan nan
6810.00 nan nan nan nan
6820.00 nan nan nan nan
6830.00 nan nan nan nan
6840.00 nan nan nan nan
6850.00 nan nan nan nan
6860.00 nan nan nan nan
6870.00 nan nan nan nan
6880.00 nan nan nan nan
6890.00 nan nan nan nan
6900.00 nan nan nan nan
6910.00 nan nan nan nan
6920.00 nan nan nan nan
6930.00 nan nan nan nan
6940.00 nan nan nan nan
6950.00 nan nan nan nan
6960.00 nan nan nan nan
6970.00 nan nan nan nan
6980.00 nan nan nan nan
6990.00 nan nan nan nan
7000.00 nan nan nan nan
7010.00 nan nan nan nan
7020.00 nan nan nan nan
7030.00 nan nan nan nan
7040.00 nan nan nan nan
7050.00 nan nan nan nan
7060.00 nan nan nan nan
7070.00 nan nan nan nan
7080.00 nan nan nan nan
7090.00 nan nan nan nan
7100.00 nan nan nan nan
7110.00 nan nan nan nan
7120.00 nan nan nan nan
7130.00 nan nan nan nan
7140.00 nan nan nan nan
7150.00 nan nan nan nan
7160.00 nan nan nan nan
7170.00 nan nan nan nan
7180.00 nan nan nan nan
7190.00 nan nan nan nan
7200.00 nan nan nan nan
7210.00 nan nan nan nan
7220.00 nan nan nan nan
7230.00 nan nan nan nan
7240.00 nan nan nan nan
7250.00 nan nan nan nan
7260.00 nan nan nan nan
7270.00 nan nan nan nan
7280.00 nan nan nan nan
7290.00 nan nan nan nan
7300.00 nan nan nan nan
7310.00 nan nan nan nan
7320.00 nan nan nan nan
7330.00 nan nan nan nan
7340.00 nan nan nan nan
7350.00 nan nan nan nan
7360.00 nan nan nan nan
7370.00 nan nan nan nan
7380.00 nan nan nan nan
7390.00 nan nan nan nan
7400.00 nan nan nan nan
7410.00 nan nan nan nan
7420.00 nan nan nan nan
7430.00 nan nan nan nan
7440.00 nan nan nan nan
7450.00 nan nan nan nan
7460.00 nan nan nan nan
7470.00 nan nan nan nan
7480.00 nan nan nan nan
7490.00 nan nan nan nan
7500.00 nan nan nan nan
7510.00 nan nan nan nan
7520.00 nan nan nan nan
7530.00 nan nan nan nan
7540.00 nan nan nan nan
7550.00 nan nan nan nan
7560.00 nan nan nan nan
7570.00 nan nan nan nan
7580.00 nan nan nan nan
7590.00 nan nan nan nan
7600.00 nan nan nan nan
7610.00 nan nan nan nan
7620.00 nan nan nan nan
7630.00 nan nan nan nan
7640.00 nan nan nan nan
7650.00 nan nan nan nan
7660.00 nan nan nan nan
7670.00 nan nan nan nan
7680.00 nan nan nan nan
7690.00 nan nan nan nan
7700.00 nan nan nan nan
7710.00 nan nan nan nan
7720.00 nan nan nan nan
7730.00 nan nan nan nan
7740.00 nan nan nan nan
7750.00 nan nan nan nan
7760.00 nan nan nan nan
7770.00 nan nan nan nan
7780.00 nan nan nan nan
7790.00 nan nan nan nan
7800.00 nan nan nan nan
7810.00 nan nan nan nan
7820.00 nan nan nan nan
7830.00 nan nan nan nan
7840.00 nan nan nan nan
7850.00 nan nan nan nan
7860.00 nan nan nan nan
7870.00 nan nan nan nan
7880.00 nan nan nan nan
7890.00 nan nan nan nan
7900.00 nan nan nan nan
7910.00 nan nan nan nan
7920.00 nan nan nan nan
7930.00 nan nan nan nan
7940.00 nan nan nan nan
7950.00 nan nan nan nan
7960.00 nan nan nan nan
7970.00 nan nan nan nan
7980.00 nan nan nan nan
7990.00 nan nan nan nan
