# Averages over distance (i) for each depth (k):
# Depth(m) Speed(m/s) Density(kg/m^3) Salt PSU Theta(degC)
0.00 1524.0890 1025.0847 35.6503 20.6611
10.00 1524.1584 1025.1387 35.6504 20.6238
20.00 1524.0055 1025.2145 35.6502 20.5048
30.00 1523.4825 1025.3250 35.6486 20.2515
40.00 1522.7706 1025.4513 35.6452 19.9320
50.00 1522.0181 1025.5793 35.6410 19.6011
60.00 1521.2764 1025.7041 35.6363 19.2773
70.00 1520.5506 1025.8254 35.6310 18.9624
80.00 1519.8430 1025.9427 35.6247 18.6569
90.00 1519.1868 1026.0535 35.6176 18.3721
100.00 1518.6339 1026.1541 35.6104 18.1252
110.00 1518.2188 1026.2423 35.6034 17.9271
120.00 1517.9379 1026.3192 35.5970 17.7755
130.00 1517.7534 1026.3881 35.5912 17.6571
140.00 1517.6183 1026.4528 35.5855 17.5559
150.00 1517.4707 1026.5172 35.5784 17.4513
160.00 1517.2583 1026.5849 35.5692 17.3262
170.00 1516.9935 1026.6552 35.5582 17.1845
180.00 1516.5938 1026.7316 35.5424 17.0008
190.00 1516.1516 1026.8099 35.5250 16.8040
200.00 1515.6176 1026.8914 35.5042 16.5801
210.00 1515.0011 1026.9758 35.4801 16.3319
220.00 1514.3846 1027.0602 35.4560 16.0838
230.00 1513.6970 1027.1452 35.4290 15.8180
240.00 1512.9828 1027.2304 35.4010 15.5457
250.00 1512.2687 1027.3156 35.3730 15.2734
260.00 1511.5521 1027.3998 35.3447 15.0023
270.00 1510.8282 1027.4807 35.3156 14.7350
280.00 1510.1043 1027.5617 35.2865 14.4676
290.00 1509.3804 1027.6427 35.2575 14.2003
300.00 1508.6569 1027.7236 35.2284 13.9331
310.00 1507.9874 1027.7977 35.2005 13.6902
320.00 1507.3179 1027.8717 35.1725 13.4473
330.00 1506.6484 1027.9458 35.1446 13.2045
340.00 1505.9789 1028.0198 35.1166 12.9616
350.00 1505.3094 1028.0939 35.0886 12.7187
360.00 1504.7187 1028.1615 35.0631 12.5054
370.00 1504.1337 1028.2287 35.0377 12.2942
380.00 1503.5487 1028.2959 35.0123 12.0831
390.00 1502.9638 1028.3630 34.9869 11.8720
400.00 1502.3788 1028.4302 34.9615 11.6608
410.00 1501.7945 1028.4974 34.9361 11.4499
420.00 1501.2983 1028.5592 34.9141 11.2695
430.00 1500.8021 1028.6211 34.8922 11.0891
440.00 1500.3058 1028.6829 34.8702 10.9087
450.00 1499.8096 1028.7448 34.8482 10.7283
460.00 1499.3134 1028.8066 34.8262 10.5479
470.00 1498.8172 1028.8685 34.8042 10.3675
480.00 1498.3444 1028.9294 34.7833 10.1946
490.00 1497.9408 1028.9875 34.7654 10.0437
500.00 1497.5371 1029.0455 34.7475 9.8928
510.00 1497.1334 1029.1036 34.7296 9.7419
520.00 1496.7297 1029.1616 34.7117 9.5910
530.00 1496.3261 1029.2197 34.6938 9.4401
540.00 1495.9224 1029.2778 34.6759 9.2892
550.00 1495.5187 1029.3358 34.6580 9.1383
560.00 1495.1887 1029.3920 34.6434 9.0089
570.00 1494.8861 1029.4474 34.6301 8.8876
580.00 1494.5836 1029.5028 34.6168 8.7662
590.00 1494.2810 1029.5582 34.6035 8.6449
600.00 1493.9784 1029.6136 34.5902 8.5235
610.00 1493.6758 1029.6690 34.5768 8.4022
620.00 1493.3732 1029.7244 34.5635 8.2808
630.00 1493.0706 1029.7798 34.5502 8.1595
640.00 1492.8167 1029.8344 34.5392 8.0516
650.00 1492.6067 1029.8883 34.5302 7.9558
660.00 1492.3967 1029.9422 34.5213 7.8599
670.00 1492.1867 1029.9961 34.5123 7.7641
680.00 1491.9766 1030.0500 34.5033 7.6683
690.00 1491.7666 1030.1039 34.4944 7.5724
700.00 1491.5566 1030.1578 34.4854 7.4766
710.00 1491.3466 1030.2117 34.4764 7.3808
720.00 1491.1365 1030.2656 34.4675 7.2849
730.00 1490.9742 1030.3193 34.4612 7.2018
740.00 1490.8270 1030.3729 34.4558 7.1228
750.00 1490.6797 1030.4265 34.4503 7.0437
760.00 1490.5325 1030.4801 34.4449 6.9646
770.00 1490.3853 1030.5336 34.4395 6.8856
780.00 1490.2380 1030.5872 34.4341 6.8065
790.00 1490.0908 1030.6408 34.4286 6.7274
800.00 1489.9435 1030.6944 34.4232 6.6484
810.00 1489.7963 1030.7480 34.4178 6.5693
820.00 1489.6647 1030.8020 34.4139 6.4944
830.00 1489.5458 1030.8563 34.4112 6.4230
840.00 1489.4269 1030.9105 34.4085 6.3515
850.00 1489.3080 1030.9648 34.4058 6.2800
860.00 1489.1891 1031.0191 34.4031 6.2086
870.00 1489.0702 1031.0734 34.4004 6.1371
880.00 1488.9513 1031.1276 34.3977 6.0656
890.00 1488.8324 1031.1819 34.3950 5.9942
900.00 1488.7135 1031.2362 34.3923 5.9227
910.00 1488.5949 1031.2905 34.3896 5.8513
920.00 1488.4872 1031.3459 34.3893 5.7830
930.00 1488.3795 1031.4013 34.3889 5.7147
940.00 1488.2718 1031.4567 34.3886 5.6465
950.00 1488.1641 1031.5120 34.3882 5.5782
960.00 1488.0564 1031.5674 34.3878 5.5099
970.00 1487.9487 1031.6228 34.3875 5.4416
980.00 1487.8410 1031.6782 34.3871 5.3733
990.00 1487.7333 1031.7336 34.3867 5.3050
1000.00 1487.6256 1031.7890 34.3864 5.2368
1010.00 1487.5228 1031.8446 34.3866 5.1698
1020.00 1487.4324 1031.9007 34.3883 5.1061
1030.00 1487.3420 1031.9569 34.3901 5.0424
1040.00 1487.2517 1032.0130 34.3918 4.9787
1050.00 1487.1613 1032.0692 34.3935 4.9150
1060.00 1487.0709 1032.1253 34.3952 4.8513
1070.00 1486.9805 1032.1815 34.3969 4.7876
1080.00 1486.8901 1032.2376 34.3987 4.7240
1090.00 1486.7997 1032.2938 34.4004 4.6603
1100.00 1486.7093 1032.3500 34.4021 4.5966
1110.00 1486.6323 1032.4061 34.4045 4.5362
1120.00 1486.5745 1032.4622 34.4078 4.4807
1130.00 1486.5167 1032.5183 34.4111 4.4252
1140.00 1486.4588 1032.5744 34.4144 4.3697
1150.00 1486.4010 1032.6305 34.4177 4.3141
1160.00 1486.3432 1032.6866 34.4209 4.2586
1170.00 1486.2854 1032.7427 34.4242 4.2031
1180.00 1486.2276 1032.7988 34.4275 4.1476
1190.00 1486.1697 1032.8549 34.4308 4.0921
1200.00 1486.1119 1032.9110 34.4341 4.0365
1210.00 1486.0728 1032.9668 34.4378 3.9856
1220.00 1486.0569 1033.0220 34.4418 3.9403
1230.00 1486.0410 1033.0772 34.4459 3.8951
1240.00 1486.0251 1033.1325 34.4499 3.8498
1250.00 1486.0092 1033.1877 34.4540 3.8046
1260.00 1485.9933 1033.2429 34.4580 3.7593
1270.00 1485.9774 1033.2982 34.4621 3.7141
1280.00 1485.9614 1033.3534 34.4661 3.6688
1290.00 1485.9455 1033.4086 34.4702 3.6236
1300.00 1485.9296 1033.4638 34.4742 3.5783
1310.00 1485.9291 1033.5186 34.4783 3.5368
1320.00 1485.9537 1033.5724 34.4823 3.5014
1330.00 1485.9783 1033.6263 34.4863 3.4660
1340.00 1486.0029 1033.6801 34.4903 3.4306
1350.00 1486.0275 1033.7340 34.4943 3.3952
1360.00 1486.0521 1033.7878 34.4983 3.3598
1370.00 1486.0766 1033.8417 34.5024 3.3244
1380.00 1486.1012 1033.8955 34.5064 3.2890
1390.00 1486.1258 1033.9494 34.5104 3.2536
1400.00 1486.1504 1034.0033 34.5144 3.2182
1410.00 1486.1778 1034.0570 34.5184 3.1835
1420.00 1486.2351 1034.1093 34.5218 3.1560
1430.00 1486.2925 1034.1616 34.5252 3.1286
1440.00 1486.3498 1034.2139 34.5286 3.1012
1450.00 1486.4072 1034.2663 34.5321 3.0737
1460.00 1486.4645 1034.3186 34.5355 3.0463
1470.00 1486.5219 1034.3709 34.5389 3.0188
1480.00 1486.5792 1034.4232 34.5423 2.9914
1490.00 1486.6365 1034.4756 34.5458 2.9640
1500.00 1486.6939 1034.5279 34.5492 2.9365
1510.00 1486.7512 1034.5802 34.5526 2.9091
1520.00 1486.8162 1034.6321 34.5558 2.8835
1530.00 1486.8998 1034.6829 34.5584 2.8624
1540.00 1486.9834 1034.7336 34.5610 2.8414
1550.00 1487.0670 1034.7844 34.5635 2.8203
1560.00 1487.1507 1034.8352 34.5661 2.7993
1570.00 1487.2343 1034.8860 34.5687 2.7782
1580.00 1487.3179 1034.9368 34.5713 2.7572
1590.00 1487.4015 1034.9876 34.5739 2.7361
1600.00 1487.4851 1035.0383 34.5764 2.7151
1610.00 1487.5687 1035.0891 34.5790 2.6940
1620.00 1487.6523 1035.1399 34.5816 2.6730
1630.00 1487.7360 1035.1907 34.5842 2.6519
1640.00 1487.8321 1035.2407 34.5863 2.6339
1650.00 1487.9373 1035.2901 34.5881 2.6180
1660.00 1488.0425 1035.3396 34.5898 2.6021
1670.00 1488.1477 1035.3890 34.5916 2.5863
1680.00 1488.2529 1035.4385 34.5934 2.5704
1690.00 1488.3581 1035.4879 34.5952 2.5545
1700.00 1488.4633 1035.5374 34.5969 2.5387
1710.00 1488.5685 1035.5868 34.5987 2.5228
1720.00 1488.6736 1035.6363 34.6005 2.5069
1730.00 1488.7788 1035.6857 34.6023 2.4910
1740.00 1488.8840 1035.7352 34.6040 2.4752
1750.00 1488.9892 1035.7846 34.6058 2.4593
1760.00 1489.0944 1035.8341 34.6076 2.4434
1770.00 1489.2067 1035.8831 34.6091 2.4292
1780.00 1489.3267 1035.9316 34.6104 2.4168
1790.00 1489.4466 1035.9802 34.6116 2.4044
1800.00 1489.5665 1036.0287 34.6129 2.3919
1810.00 1489.6864 1036.0773 34.6141 2.3795
1820.00 1489.8063 1036.1258 34.6154 2.3671
1830.00 1489.9262 1036.1743 34.6166 2.3547
1840.00 1490.0461 1036.2229 34.6179 2.3423
1850.00 1490.1660 1036.2714 34.6191 2.3298
1860.00 1490.2859 1036.3200 34.6204 2.3174
1870.00 1490.4058 1036.3685 34.6216 2.3050
1880.00 1490.5258 1036.4170 34.6229 2.2926
1890.00 1490.6457 1036.4656 34.6242 2.2801
1900.00 1490.7656 1036.5141 34.6254 2.2677
1910.00 1490.8855 1036.5627 34.6267 2.2553
1920.00 1491.0113 1036.6108 34.6277 2.2442
1930.00 1491.1413 1036.6588 34.6287 2.2341
1940.00 1491.2713 1036.7067 34.6296 2.2239
1950.00 1491.4013 1036.7547 34.6306 2.2138
1960.00 1491.5313 1036.8026 34.6315 2.2036
1970.00 1491.6613 1036.8505 34.6325 2.1935
1980.00 1491.7913 1036.8985 34.6334 2.1833
1990.00 1491.9213 1036.9464 34.6344 2.1732
2000.00 1492.0513 1036.9943 34.6353 2.1630
2010.00 1492.1813 1037.0423 34.6363 2.1529
2020.00 1492.3113 1037.0902 34.6372 2.1427
2030.00 1492.4413 1037.1382 34.6382 2.1326
2040.00 1492.5713 1037.1861 34.6391 2.1224
2050.00 1492.7013 1037.2340 34.6401 2.1123
2060.00 1492.8313 1037.2820 34.6410 2.1021
2070.00 1492.9613 1037.3299 34.6420 2.0920
2080.00 1493.0913 1037.3779 34.6429 2.0818
2090.00 1493.2265 1037.4255 34.6437 2.0728
2100.00 1493.3652 1037.4729 34.6445 2.0646
2110.00 1493.5039 1037.5204 34.6452 2.0563
2120.00 1493.6426 1037.5678 34.6459 2.0481
2130.00 1493.7813 1037.6152 34.6467 2.0398
2140.00 1493.9201 1037.6627 34.6474 2.0315
2150.00 1494.0588 1037.7101 34.6481 2.0233
2160.00 1494.1975 1037.7575 34.6489 2.0150
2170.00 1494.3362 1037.8050 34.6496 2.0068
2180.00 1494.4749 1037.8524 34.6503 1.9985
2190.00 1494.6137 1037.8999 34.6511 1.9903
2200.00 1494.7524 1037.9473 34.6518 1.9820
2210.00 1494.8911 1037.9947 34.6525 1.9738
2220.00 1495.0298 1038.0422 34.6533 1.9655
2230.00 1495.1685 1038.0896 34.6540 1.9573
2240.00 1495.3073 1038.1370 34.6548 1.9490
2250.00 1495.4460 1038.1845 34.6555 1.9408
2260.00 1495.5847 1038.2319 34.6562 1.9325
2270.00 1495.7234 1038.2793 34.6570 1.9242
2280.00 1495.8661 1038.3266 34.6576 1.9168
2290.00 1496.0152 1038.3734 34.6582 1.9108
2300.00 1496.1643 1038.4203 34.6587 1.9048
2310.00 1496.3135 1038.4672 34.6592 1.8987
2320.00 1496.4626 1038.5141 34.6598 1.8927
2330.00 1496.6117 1038.5609 34.6603 1.8867
2340.00 1496.7608 1038.6078 34.6609 1.8806
2350.00 1496.9100 1038.6547 34.6614 1.8746
2360.00 1497.0591 1038.7015 34.6619 1.8686
2370.00 1497.2082 1038.7484 34.6625 1.8626
2380.00 1497.3574 1038.7953 34.6630 1.8565
2390.00 1497.5065 1038.8422 34.6636 1.8505
2400.00 1497.6556 1038.8890 34.6641 1.8445
2410.00 1497.8047 1038.9359 34.6647 1.8384
2420.00 1497.9539 1038.9828 34.6652 1.8324
2430.00 1498.1030 1039.0297 34.6657 1.8264
2440.00 1498.2521 1039.0765 34.6663 1.8203
2450.00 1498.4013 1039.1234 34.6668 1.8143
2460.00 1498.5504 1039.1703 34.6674 1.8083
2470.00 1498.6995 1039.2171 34.6679 1.8023
2480.00 1498.8487 1039.2640 34.6684 1.7962
2490.00 1498.9978 1039.3109 34.6690 1.7902
2500.00 1499.1561 1039.3573 34.6694 1.7861
2510.00 1499.3158 1039.4035 34.6697 1.7823
2520.00 1499.4755 1039.4498 34.6701 1.7785
2530.00 1499.6352 1039.4961 34.6705 1.7746
2540.00 1499.7948 1039.5424 34.6708 1.7708
2550.00 1499.9545 1039.5887 34.6712 1.7670
2560.00 1500.1142 1039.6350 34.6716 1.7632
2570.00 1500.2738 1039.6812 34.6719 1.7594
2580.00 1500.4335 1039.7275 34.6723 1.7555
2590.00 1500.5932 1039.7738 34.6727 1.7517
2600.00 1500.7529 1039.8201 34.6730 1.7479
2610.00 1500.9125 1039.8664 34.6734 1.7441
2620.00 1501.0722 1039.9127 34.6738 1.7402
2630.00 1501.2319 1039.9590 34.6741 1.7364
2640.00 1501.3915 1040.0052 34.6745 1.7326
2650.00 1501.5512 1040.0515 34.6748 1.7288
2660.00 1501.7109 1040.0978 34.6752 1.7250
2670.00 1501.8706 1040.1441 34.6756 1.7211
2680.00 1502.0302 1040.1904 34.6759 1.7173
2690.00 1502.1899 1040.2367 34.6763 1.7135
2700.00 1502.3496 1040.2830 34.6767 1.7097
2710.00 1502.5092 1040.3292 34.6770 1.7059
2720.00 1502.6689 1040.3755 34.6774 1.7020
2730.00 1502.8292 1040.4218 34.6777 1.6983
2740.00 1502.9979 1040.4675 34.6779 1.6963
2750.00 1503.1665 1040.5132 34.6781 1.6943
2760.00 1503.3351 1040.5589 34.6783 1.6923
2770.00 1503.5037 1040.6047 34.6785 1.6903
2780.00 1503.6723 1040.6504 34.6787 1.6883
2790.00 1503.8409 1040.6961 34.6789 1.6863
2800.00 1504.0095 1040.7418 34.6791 1.6843
2810.00 1504.1781 1040.7875 34.6793 1.6823
2820.00 1504.3467 1040.8333 34.6795 1.6803
2830.00 1504.5153 1040.8790 34.6797 1.6783
2840.00 1504.6839 1040.9247 34.6799 1.6763
2850.00 1504.8525 1040.9704 34.6801 1.6743
2860.00 1505.0211 1041.0161 34.6803 1.6723
2870.00 1505.1897 1041.0619 34.6805 1.6703
2880.00 1505.3583 1041.1076 34.6807 1.6683
2890.00 1505.5269 1041.1533 34.6809 1.6662
2900.00 1505.6955 1041.1990 34.6811 1.6642
2910.00 1505.8641 1041.2448 34.6813 1.6622
2920.00 1506.0327 1041.2905 34.6815 1.6602
2930.00 1506.2013 1041.3362 34.6817 1.6582
2940.00 1506.3699 1041.3819 34.6819 1.6562
2950.00 1506.5385 1041.4276 34.6821 1.6542
2960.00 1506.7071 1041.4734 34.6823 1.6522
2970.00 1506.8757 1041.5191 34.6825 1.6502
2980.00 1507.0443 1041.5648 34.6827 1.6482
2990.00 1507.2129 1041.6105 34.6829 1.6462
3000.00 1507.3867 1041.6558 34.6830 1.6451
3010.00 1507.5606 1041.7011 34.6831 1.6441
3020.00 1507.7345 1041.7465 34.6832 1.6430
3030.00 1507.9085 1041.7918 34.6833 1.6420
3040.00 1508.0824 1041.8371 34.6834 1.6410
3050.00 1508.2563 1041.8824 34.6835 1.6399
3060.00 1508.4303 1041.9277 34.6837 1.6389
3070.00 1508.6042 1041.9730 34.6838 1.6378
3080.00 1508.7781 1042.0183 34.6839 1.6368
3090.00 1508.9521 1042.0636 34.6840 1.6358
3100.00 1509.1260 1042.1089 34.6841 1.6347
3110.00 1509.2999 1042.1542 34.6842 1.6337
3120.00 1509.4739 1042.1995 34.6843 1.6326
3130.00 1509.6478 1042.2448 34.6844 1.6316
3140.00 1509.8217 1042.2902 34.6845 1.6306
3150.00 1509.9957 1042.3355 34.6846 1.6295
3160.00 1510.1696 1042.3808 34.6847 1.6285
3170.00 1510.3435 1042.4261 34.6848 1.6274
3180.00 1510.5175 1042.4714 34.6850 1.6264
3190.00 1510.6914 1042.5167 34.6851 1.6254
3200.00 1510.8653 1042.5620 34.6852 1.6243
3210.00 1511.0393 1042.6073 34.6853 1.6233
3220.00 1511.2132 1042.6526 34.6854 1.6222
3230.00 1511.3872 1042.6979 34.6855 1.6212
3240.00 1511.5611 1042.7432 34.6856 1.6202
3250.00 1511.7350 1042.7885 34.6857 1.6191
3260.00 1511.9090 1042.8339 34.6858 1.6181
3270.00 1512.0829 1042.8792 34.6859 1.6170
3280.00 1512.2595 1042.9242 34.6860 1.6164
3290.00 1512.4381 1042.9692 34.6861 1.6162
3300.00 1512.6167 1043.0141 34.6861 1.6159
3310.00 1512.7952 1043.0590 34.6862 1.6157
3320.00 1512.9738 1043.1039 34.6862 1.6154
3330.00 1513.1524 1043.1489 34.6863 1.6152
3340.00 1513.3310 1043.1938 34.6864 1.6149
3350.00 1513.5096 1043.2387 34.6864 1.6147
3360.00 1513.6882 1043.2836 34.6865 1.6144
3370.00 1513.8667 1043.3285 34.6865 1.6142
3380.00 1514.0453 1043.3735 34.6866 1.6139
3390.00 1514.2239 1043.4184 34.6867 1.6137
3400.00 1514.4025 1043.4633 34.6867 1.6134
3410.00 1514.5811 1043.5082 34.6868 1.6132
3420.00 1514.7597 1043.5532 34.6868 1.6129
3430.00 1514.9382 1043.5981 34.6869 1.6127
3440.00 1515.1168 1043.6430 34.6869 1.6124
3450.00 1515.2954 1043.6879 34.6870 1.6122
3460.00 1515.4740 1043.7328 34.6871 1.6119
3470.00 1515.6526 1043.7778 34.6871 1.6117
3480.00 1515.8311 1043.8227 34.6872 1.6114
3490.00 1516.0097 1043.8676 34.6872 1.6112
3500.00 1516.1883 1043.9125 34.6873 1.6109
3510.00 1516.3669 1043.9575 34.6874 1.6107
3520.00 1516.5455 1044.0024 34.6874 1.6104
3530.00 1516.7241 1044.0473 34.6875 1.6102
3540.00 1516.9026 1044.0922 34.6875 1.6099
3550.00 1517.0812 1044.1371 34.6876 1.6096
3560.00 1517.2598 1044.1821 34.6877 1.6094
3570.00 1517.4384 1044.2270 34.6877 1.6091
3580.00 1517.6170 1044.2719 34.6878 1.6089
3590.00 1517.7975 1044.3165 34.6878 1.6089
3600.00 1517.9784 1044.3611 34.6878 1.6089
3610.00 1518.1593 1044.4057 34.6878 1.6089
3620.00 1518.3401 1044.4503 34.6878 1.6089
3630.00 1518.5210 1044.4949 34.6878 1.6089
3640.00 1518.7018 1044.5395 34.6878 1.6089
3650.00 1518.8827 1044.5841 34.6878 1.6089
3660.00 1519.0636 1044.6287 34.6878 1.6089
3670.00 1519.2444 1044.6732 34.6878 1.6089
3680.00 1519.4253 1044.7178 34.6878 1.6089
3690.00 1519.6061 1044.7624 34.6878 1.6089
3700.00 1519.7870 1044.8070 34.6878 1.6089
3710.00 1519.9679 1044.8516 34.6878 1.6089
3720.00 1520.1487 1044.8962 34.6878 1.6089
3730.00 1520.3296 1044.9408 34.6878 1.6089
3740.00 1520.5104 1044.9854 34.6878 1.6089
3750.00 1520.6913 1045.0300 34.6878 1.6089
3760.00 1520.8722 1045.0745 34.6878 1.6089
3770.00 1521.0530 1045.1191 34.6878 1.6089
3780.00 1521.2339 1045.1637 34.6878 1.6089
3790.00 1521.4147 1045.2083 34.6878 1.6089
3800.00 1521.5956 1045.2529 34.6878 1.6089
3810.00 1521.7765 1045.2975 34.6878 1.6089
3820.00 1521.9573 1045.3421 34.6878 1.6089
3830.00 1522.1382 1045.3867 34.6878 1.6089
3840.00 1522.3190 1045.4312 34.6878 1.6089
3850.00 1522.4999 1045.4758 34.6878 1.6089
3860.00 1522.6808 1045.5204 34.6878 1.6089
3870.00 1522.8616 1045.5650 34.6878 1.6089
3880.00 1523.0425 1045.6096 34.6878 1.6089
3890.00 1523.2233 1045.6542 34.6878 1.6089
3900.00 1523.4042 1045.6988 34.6878 1.6089
3910.00 1523.5851 1045.7434 34.6878 1.6089
3920.00 nan nan nan nan
3930.00 nan nan nan nan
3940.00 nan nan nan nan
3950.00 nan nan nan nan
3960.00 nan nan nan nan
3970.00 nan nan nan nan
3980.00 nan nan nan nan
3990.00 nan nan nan nan
4000.00 nan nan nan nan
4010.00 nan nan nan nan
4020.00 nan nan nan nan
4030.00 nan nan nan nan
4040.00 nan nan nan nan
4050.00 nan nan nan nan
4060.00 nan nan nan nan
4070.00 nan nan nan nan
4080.00 nan nan nan nan
4090.00 nan nan nan nan
4100.00 nan nan nan nan
4110.00 nan nan nan nan
4120.00 nan nan nan nan
4130.00 nan nan nan nan
4140.00 nan nan nan nan
4150.00 nan nan nan nan
4160.00 nan nan nan nan
4170.00 nan nan nan nan
4180.00 nan nan nan nan
4190.00 nan nan nan nan
4200.00 nan nan nan nan
4210.00 nan nan nan nan
4220.00 nan nan nan nan
4230.00 nan nan nan nan
4240.00 nan nan nan nan
4250.00 nan nan nan nan
4260.00 nan nan nan nan
4270.00 nan nan nan nan
4280.00 nan nan nan nan
4290.00 nan nan nan nan
4300.00 nan nan nan nan
4310.00 nan nan nan nan
4320.00 nan nan nan nan
4330.00 nan nan nan nan
4340.00 nan nan nan nan
4350.00 nan nan nan nan
4360.00 nan nan nan nan
4370.00 nan nan nan nan
4380.00 nan nan nan nan
4390.00 nan nan nan nan
4400.00 nan nan nan nan
4410.00 nan nan nan nan
4420.00 nan nan nan nan
4430.00 nan nan nan nan
4440.00 nan nan nan nan
4450.00 nan nan nan nan
4460.00 nan nan nan nan
4470.00 nan nan nan nan
4480.00 nan nan nan nan
4490.00 nan nan nan nan
4500.00 nan nan nan nan
4510.00 nan nan nan nan
4520.00 nan nan nan nan
4530.00 nan nan nan nan
4540.00 nan nan nan nan
4550.00 nan nan nan nan
4560.00 nan nan nan nan
4570.00 nan nan nan nan
4580.00 nan nan nan nan
4590.00 nan nan nan nan
4600.00 nan nan nan nan
4610.00 nan nan nan nan
4620.00 nan nan nan nan
4630.00 nan nan nan nan
4640.00 nan nan nan nan
4650.00 nan nan nan nan
4660.00 nan nan nan nan
4670.00 nan nan nan nan
4680.00 nan nan nan nan
4690.00 nan nan nan nan
4700.00 nan nan nan nan
4710.00 nan nan nan nan
4720.00 nan nan nan nan
4730.00 nan nan nan nan
4740.00 nan nan nan nan
4750.00 nan nan nan nan
4760.00 nan nan nan nan
4770.00 nan nan nan nan
4780.00 nan nan nan nan
4790.00 nan nan nan nan
4800.00 nan nan nan nan
4810.00 nan nan nan nan
4820.00 nan nan nan nan
4830.00 nan nan nan nan
4840.00 nan nan nan nan
4850.00 nan nan nan nan
4860.00 nan nan nan nan
4870.00 nan nan nan nan
4880.00 nan nan nan nan
4890.00 nan nan nan nan
4900.00 nan nan nan nan
4910.00 nan nan nan nan
4920.00 nan nan nan nan
4930.00 nan nan nan nan
4940.00 nan nan nan nan
4950.00 nan nan nan nan
4960.00 nan nan nan nan
4970.00 nan nan nan nan
4980.00 nan nan nan nan
4990.00 nan nan nan nan
5000.00 nan nan nan nan
5010.00 nan nan nan nan
5020.00 nan nan nan nan
5030.00 nan nan nan nan
5040.00 nan nan nan nan
5050.00 nan nan nan nan
5060.00 nan nan nan nan
5070.00 nan nan nan nan
5080.00 nan nan nan nan
5090.00 nan nan nan nan
5100.00 nan nan nan nan
5110.00 nan nan nan nan
5120.00 nan nan nan nan
5130.00 nan nan nan nan
5140.00 nan nan nan nan
5150.00 nan nan nan nan
5160.00 nan nan nan nan
5170.00 nan nan nan nan
5180.00 nan nan nan nan
5190.00 nan nan nan nan
5200.00 nan nan nan nan
5210.00 nan nan nan nan
5220.00 nan nan nan nan
5230.00 nan nan nan nan
5240.00 nan nan nan nan
5250.00 nan nan nan nan
5260.00 nan nan nan nan
5270.00 nan nan nan nan
5280.00 nan nan nan nan
5290.00 nan nan nan nan
5300.00 nan nan nan nan
5310.00 nan nan nan nan
5320.00 nan nan nan nan
5330.00 nan nan nan nan
5340.00 nan nan nan nan
5350.00 nan nan nan nan
5360.00 nan nan nan nan
5370.00 nan nan nan nan
5380.00 nan nan nan nan
5390.00 nan nan nan nan
5400.00 nan nan nan nan
5410.00 nan nan nan nan
5420.00 nan nan nan nan
5430.00 nan nan nan nan
5440.00 nan nan nan nan
5450.00 nan nan nan nan
5460.00 nan nan nan nan
5470.00 nan nan nan nan
5480.00 nan nan nan nan
5490.00 nan nan nan nan
5500.00 nan nan nan nan
5510.00 nan nan nan nan
5520.00 nan nan nan nan
5530.00 nan nan nan nan
5540.00 nan nan nan nan
5550.00 nan nan nan nan
5560.00 nan nan nan nan
5570.00 nan nan nan nan
5580.00 nan nan nan nan
5590.00 nan nan nan nan
5600.00 nan nan nan nan
5610.00 nan nan nan nan
5620.00 nan nan nan nan
5630.00 nan nan nan nan
5640.00 nan nan nan nan
5650.00 nan nan nan nan
5660.00 nan nan nan nan
5670.00 nan nan nan nan
5680.00 nan nan nan nan
5690.00 nan nan nan nan
5700.00 nan nan nan nan
5710.00 nan nan nan nan
5720.00 nan nan nan nan
5730.00 nan nan nan nan
5740.00 nan nan nan nan
5750.00 nan nan nan nan
5760.00 nan nan nan nan
5770.00 nan nan nan nan
5780.00 nan nan nan nan
5790.00 nan nan nan nan
5800.00 nan nan nan nan
5810.00 nan nan nan nan
5820.00 nan nan nan nan
5830.00 nan nan nan nan
5840.00 nan nan nan nan
5850.00 nan nan nan nan
5860.00 nan nan nan nan
5870.00 nan nan nan nan
5880.00 nan nan nan nan
5890.00 nan nan nan nan
5900.00 nan nan nan nan
5910.00 nan nan nan nan
5920.00 nan nan nan nan
5930.00 nan nan nan nan
5940.00 nan nan nan nan
5950.00 nan nan nan nan
5960.00 nan nan nan nan
5970.00 nan nan nan nan
5980.00 nan nan nan nan
5990.00 nan nan nan nan
6000.00 nan nan nan nan
6010.00 nan nan nan nan
6020.00 nan nan nan nan
6030.00 nan nan nan nan
6040.00 nan nan nan nan
6050.00 nan nan nan nan
6060.00 nan nan nan nan
6070.00 nan nan nan nan
6080.00 nan nan nan nan
6090.00 nan nan nan nan
6100.00 nan nan nan nan
6110.00 nan nan nan nan
6120.00 nan nan nan nan
6130.00 nan nan nan nan
6140.00 nan nan nan nan
6150.00 nan nan nan nan
6160.00 nan nan nan nan
6170.00 nan nan nan nan
6180.00 nan nan nan nan
6190.00 nan nan nan nan
6200.00 nan nan nan nan
6210.00 nan nan nan nan
6220.00 nan nan nan nan
6230.00 nan nan nan nan
6240.00 nan nan nan nan
6250.00 nan nan nan nan
6260.00 nan nan nan nan
6270.00 nan nan nan nan
6280.00 nan nan nan nan
6290.00 nan nan nan nan
6300.00 nan nan nan nan
6310.00 nan nan nan nan
6320.00 nan nan nan nan
6330.00 nan nan nan nan
6340.00 nan nan nan nan
6350.00 nan nan nan nan
6360.00 nan nan nan nan
6370.00 nan nan nan nan
6380.00 nan nan nan nan
6390.00 nan nan nan nan
6400.00 nan nan nan nan
6410.00 nan nan nan nan
6420.00 nan nan nan nan
6430.00 nan nan nan nan
6440.00 nan nan nan nan
6450.00 nan nan nan nan
6460.00 nan nan nan nan
6470.00 nan nan nan nan
6480.00 nan nan nan nan
6490.00 nan nan nan nan
6500.00 nan nan nan nan
6510.00 nan nan nan nan
6520.00 nan nan nan nan
6530.00 nan nan nan nan
6540.00 nan nan nan nan
6550.00 nan nan nan nan
6560.00 nan nan nan nan
6570.00 nan nan nan nan
6580.00 nan nan nan nan
6590.00 nan nan nan nan
6600.00 nan nan nan nan
6610.00 nan nan nan nan
6620.00 nan nan nan nan
6630.00 nan nan nan nan
6640.00 nan nan nan nan
6650.00 nan nan nan nan
6660.00 nan nan nan nan
6670.00 nan nan nan nan
6680.00 nan nan nan nan
6690.00 nan nan nan nan
6700.00 nan nan nan nan
6710.00 nan nan nan nan
6720.00 nan nan nan nan
6730.00 nan nan nan nan
6740.00 nan nan nan nan
6750.00 nan nan nan nan
6760.00 nan nan nan nan
6770.00 nan nan nan nan
6780.00 nan nan nan nan
6790.00 nan nan nan nan
6800.00 nan nan nan nan
6810.00 nan nan nan nan
6820.00 nan nan nan nan
6830.00 nan nan nan nan
6840.00 nan nan nan nan
6850.00 nan nan nan nan
6860.00 nan nan nan nan
6870.00 nan nan nan nan
6880.00 nan nan nan nan
6890.00 nan nan nan nan
6900.00 nan nan nan nan
6910.00 nan nan nan nan
6920.00 nan nan nan nan
6930.00 nan nan nan nan
6940.00 nan nan nan nan
6950.00 nan nan nan nan
6960.00 nan nan nan nan
6970.00 nan nan nan nan
6980.00 nan nan nan nan
6990.00 nan nan nan nan
7000.00 nan nan nan nan
7010.00 nan nan nan nan
7020.00 nan nan nan nan
7030.00 nan nan nan nan
7040.00 nan nan nan nan
7050.00 nan nan nan nan
7060.00 nan nan nan nan
7070.00 nan nan nan nan
7080.00 nan nan nan nan
7090.00 nan nan nan nan
7100.00 nan nan nan nan
7110.00 nan nan nan nan
7120.00 nan nan nan nan
7130.00 nan nan nan nan
7140.00 nan nan nan nan
7150.00 nan nan nan nan
7160.00 nan nan nan nan
7170.00 nan nan nan nan
7180.00 nan nan nan nan
7190.00 nan nan nan nan
7200.00 nan nan nan nan
7210.00 nan nan nan nan
7220.00 nan nan nan nan
7230.00 nan nan nan nan
7240.00 nan nan nan nan
7250.00 nan nan nan nan
7260.00 nan nan nan nan
7270.00 nan nan nan nan
7280.00 nan nan nan nan
7290.00 nan nan nan nan
7300.00 nan nan nan nan
7310.00 nan nan nan nan
7320.00 nan nan nan nan
7330.00 nan nan nan nan
7340.00 nan nan nan nan
7350.00 nan nan nan nan
7360.00 nan nan nan nan
7370.00 nan nan nan nan
7380.00 nan nan nan nan
7390.00 nan nan nan nan
7400.00 nan nan nan nan
7410.00 nan nan nan nan
7420.00 nan nan nan nan
7430.00 nan nan nan nan
7440.00 nan nan nan nan
7450.00 nan nan nan nan
7460.00 nan nan nan nan
7470.00 nan nan nan nan
7480.00 nan nan nan nan
7490.00 nan nan nan nan
7500.00 nan nan nan nan
7510.00 nan nan nan nan
7520.00 nan nan nan nan
7530.00 nan nan nan nan
7540.00 nan nan nan nan
7550.00 nan nan nan nan
7560.00 nan nan nan nan
7570.00 nan nan nan nan
7580.00 nan nan nan nan
7590.00 nan nan nan nan
7600.00 nan nan nan nan
7610.00 nan nan nan nan
7620.00 nan nan nan nan
7630.00 nan nan nan nan
7640.00 nan nan nan nan
7650.00 nan nan nan nan
7660.00 nan nan nan nan
7670.00 nan nan nan nan
7680.00 nan nan nan nan
7690.00 nan nan nan nan
7700.00 nan nan nan nan
7710.00 nan nan nan nan
7720.00 nan nan nan nan
7730.00 nan nan nan nan
7740.00 nan nan nan nan
7750.00 nan nan nan nan
7760.00 nan nan nan nan
7770.00 nan nan nan nan
7780.00 nan nan nan nan
7790.00 nan nan nan nan
7800.00 nan nan nan nan
7810.00 nan nan nan nan
7820.00 nan nan nan nan
7830.00 nan nan nan nan
7840.00 nan nan nan nan
7850.00 nan nan nan nan
7860.00 nan nan nan nan
7870.00 nan nan nan nan
7880.00 nan nan nan nan
7890.00 nan nan nan nan
7900.00 nan nan nan nan
7910.00 nan nan nan nan
7920.00 nan nan nan nan
7930.00 nan nan nan nan
7940.00 nan nan nan nan
7950.00 nan nan nan nan
7960.00 nan nan nan nan
7970.00 nan nan nan nan
7980.00 nan nan nan nan
7990.00 nan nan nan nan
