# Averages over distance (i) for each depth (k):
# Depth(m) Speed(m/s) Density(kg/m^3) Salt PSU Theta(degC)
0.00 1539.0167 1022.6905 34.9720 27.0238
10.00 1539.0897 1022.7500 34.9746 26.9792
20.00 1539.1781 1022.8069 34.9768 26.9416
30.00 1539.2778 1022.8618 34.9787 26.9091
40.00 1539.3504 1022.9207 34.9808 26.8648
50.00 1539.3237 1022.9937 34.9831 26.7766
60.00 1539.0125 1023.1051 34.9845 26.5648
70.00 1538.1673 1023.2875 34.9853 26.1239
80.00 1536.6701 1023.5561 34.9902 25.4099
90.00 1534.5428 1023.8984 34.9986 24.4482
100.00 1531.8046 1024.2921 35.0010 23.2716
110.00 1528.4801 1024.7168 34.9912 21.9145
120.00 1524.6937 1025.1500 34.9713 20.4429
130.00 1520.6917 1025.5667 34.9463 18.9540
140.00 1516.7194 1025.9497 34.9202 17.5297
150.00 1513.2434 1026.2599 34.8978 16.3345
160.00 1510.2807 1026.5215 34.8794 15.3287
170.00 1507.7329 1026.7439 34.8642 14.4758
180.00 1505.9482 1026.9092 34.8541 13.8765
190.00 1504.4044 1027.0566 34.8456 13.3571
200.00 1503.2369 1027.1794 34.8392 12.9558
210.00 1502.4078 1027.2802 34.8346 12.6607
220.00 1501.5787 1027.3810 34.8301 12.3656
230.00 1501.0013 1027.4657 34.8260 12.1478
240.00 1500.5175 1027.5445 34.8221 11.9588
250.00 1500.0337 1027.6233 34.8182 11.7698
260.00 1499.5748 1027.6999 34.8138 11.5890
270.00 1499.1894 1027.7700 34.8078 11.4322
280.00 1498.8040 1027.8402 34.8019 11.2754
290.00 1498.4185 1027.9103 34.7960 11.1187
300.00 1498.0332 1027.9804 34.7901 10.9619
310.00 1497.6533 1028.0471 34.7821 10.8104
320.00 1497.2734 1028.1138 34.7741 10.6589
330.00 1496.8935 1028.1804 34.7661 10.5074
340.00 1496.5135 1028.2471 34.7581 10.3559
350.00 1496.1336 1028.3138 34.7502 10.2044
360.00 1495.7637 1028.3782 34.7418 10.0588
370.00 1495.3946 1028.4425 34.7334 9.9136
380.00 1495.0254 1028.5068 34.7251 9.7684
390.00 1494.6562 1028.5711 34.7167 9.6232
400.00 1494.2871 1028.6354 34.7083 9.4780
410.00 1493.9182 1028.6997 34.7000 9.3329
420.00 1493.5900 1028.7617 34.6928 9.2016
430.00 1493.2618 1028.8236 34.6857 9.0703
440.00 1492.9336 1028.8855 34.6785 8.9390
450.00 1492.6055 1028.9474 34.6714 8.8077
460.00 1492.2773 1029.0093 34.6642 8.6765
470.00 1491.9491 1029.0713 34.6571 8.5452
480.00 1491.6346 1029.1327 34.6504 8.4180
490.00 1491.3604 1029.1925 34.6450 8.3033
500.00 1491.0863 1029.2523 34.6397 8.1886
510.00 1490.8121 1029.3121 34.6343 8.0738
520.00 1490.5380 1029.3719 34.6290 7.9591
530.00 1490.2638 1029.4317 34.6236 7.8444
540.00 1489.9896 1029.4915 34.6183 7.7296
550.00 1489.7155 1029.5513 34.6129 7.6149
560.00 1489.4841 1029.6097 34.6088 7.5125
570.00 1489.2687 1029.6675 34.6052 7.4148
580.00 1489.0532 1029.7254 34.6016 7.3170
590.00 1488.8377 1029.7833 34.5979 7.2192
600.00 1488.6223 1029.8411 34.5943 7.1215
610.00 1488.4068 1029.8990 34.5907 7.0237
620.00 1488.1913 1029.9568 34.5870 6.9260
630.00 1487.9759 1030.0147 34.5834 6.8282
640.00 1487.7910 1030.0716 34.5805 6.7389
650.00 1487.6338 1030.1277 34.5783 6.6573
660.00 1487.4765 1030.1839 34.5761 6.5756
670.00 1487.3193 1030.2400 34.5739 6.4939
680.00 1487.1620 1030.2961 34.5717 6.4123
690.00 1487.0048 1030.3522 34.5696 6.3306
700.00 1486.8475 1030.4084 34.5674 6.2490
710.00 1486.6903 1030.4645 34.5652 6.1673
720.00 1486.5330 1030.5206 34.5630 6.0857
730.00 1486.4155 1030.5756 34.5617 6.0147
740.00 1486.3106 1030.6303 34.5606 5.9470
750.00 1486.2057 1030.6850 34.5595 5.8793
760.00 1486.1008 1030.7397 34.5585 5.8117
770.00 1485.9959 1030.7944 34.5574 5.7440
780.00 1485.8910 1030.8491 34.5563 5.6764
790.00 1485.7861 1030.9038 34.5553 5.6087
800.00 1485.6812 1030.9585 34.5542 5.5410
810.00 1485.5763 1031.0131 34.5532 5.4734
820.00 1485.4957 1031.0672 34.5526 5.4120
830.00 1485.4347 1031.1208 34.5523 5.3558
840.00 1485.3736 1031.1743 34.5521 5.2996
850.00 1485.3126 1031.2279 34.5519 5.2433
860.00 1485.2515 1031.2814 34.5516 5.1871
870.00 1485.1905 1031.3350 34.5514 5.1309
880.00 1485.1295 1031.3885 34.5512 5.0746
890.00 1485.0684 1031.4421 34.5509 5.0184
900.00 1485.0074 1031.4956 34.5507 4.9622
910.00 1484.9473 1031.5491 34.5505 4.9061
920.00 1484.9213 1031.6018 34.5508 4.8589
930.00 1484.8954 1031.6545 34.5512 4.8116
940.00 1484.8694 1031.7071 34.5515 4.7643
950.00 1484.8435 1031.7598 34.5519 4.7170
960.00 1484.8175 1031.8125 34.5522 4.6697
970.00 1484.7916 1031.8651 34.5526 4.6224
980.00 1484.7656 1031.9178 34.5529 4.5751
990.00 1484.7397 1031.9705 34.5533 4.5279
1000.00 1484.7137 1032.0232 34.5536 4.4806
1010.00 1484.6956 1032.0756 34.5541 4.4352
1020.00 1484.6970 1032.1276 34.5548 4.3948
1030.00 1484.6985 1032.1796 34.5556 4.3544
1040.00 1484.7000 1032.2316 34.5563 4.3140
1050.00 1484.7015 1032.2835 34.5570 4.2736
1060.00 1484.7029 1032.3355 34.5578 4.2332
1070.00 1484.7044 1032.3875 34.5585 4.1928
1080.00 1484.7059 1032.4395 34.5592 4.1524
1090.00 1484.7074 1032.4915 34.5600 4.1120
1100.00 1484.7088 1032.5434 34.5607 4.0716
1110.00 1484.7191 1032.5952 34.5615 4.0334
1120.00 1484.7419 1032.6466 34.5625 3.9982
1130.00 1484.7647 1032.6980 34.5635 3.9631
1140.00 1484.7875 1032.7494 34.5644 3.9280
1150.00 1484.8103 1032.8009 34.5654 3.8929
1160.00 1484.8331 1032.8523 34.5664 3.8578
1170.00 1484.8559 1032.9037 34.5673 3.8227
1180.00 1484.8787 1032.9551 34.5683 3.7875
1190.00 1484.9015 1033.0066 34.5693 3.7524
1200.00 1484.9244 1033.0580 34.5703 3.7173
1210.00 1484.9548 1033.1092 34.5713 3.6840
1220.00 1484.9946 1033.1601 34.5724 3.6531
1230.00 1485.0344 1033.2111 34.5735 3.6222
1240.00 1485.0743 1033.2620 34.5746 3.5912
1250.00 1485.1141 1033.3129 34.5757 3.5603
1260.00 1485.1539 1033.3639 34.5768 3.5293
1270.00 1485.1938 1033.4148 34.5779 3.4984
1280.00 1485.2336 1033.4658 34.5790 3.4674
1290.00 1485.2734 1033.5167 34.5801 3.4365
1300.00 1485.3132 1033.5676 34.5812 3.4055
1310.00 1485.3587 1033.6184 34.5823 3.3759
1320.00 1485.4133 1033.6689 34.5835 3.3486
1330.00 1485.4678 1033.7194 34.5846 3.3212
1340.00 1485.5224 1033.7698 34.5858 3.2938
1350.00 1485.5770 1033.8203 34.5869 3.2664
1360.00 1485.6316 1033.8708 34.5880 3.2391
1370.00 1485.6862 1033.9213 34.5892 3.2117
1380.00 1485.7407 1033.9718 34.5903 3.1843
1390.00 1485.7953 1034.0223 34.5915 3.1569
1400.00 1485.8499 1034.0727 34.5926 3.1296
1410.00 1485.9057 1034.1232 34.5937 3.1025
1420.00 1485.9747 1034.1732 34.5948 3.0785
1430.00 1486.0436 1034.2231 34.5959 3.0546
1440.00 1486.1126 1034.2731 34.5970 3.0306
1450.00 1486.1815 1034.3231 34.5981 3.0067
1460.00 1486.2505 1034.3731 34.5992 2.9828
1470.00 1486.3195 1034.4230 34.6003 2.9588
1480.00 1486.3884 1034.4730 34.6014 2.9349
1490.00 1486.4574 1034.5230 34.6025 2.9109
1500.00 1486.5263 1034.5730 34.6036 2.8870
1510.00 1486.5953 1034.6229 34.6047 2.8631
1520.00 1486.6686 1034.6727 34.6058 2.8401
1530.00 1486.7525 1034.7221 34.6068 2.8197
1540.00 1486.8364 1034.7715 34.6078 2.7993
1550.00 1486.9204 1034.8209 34.6088 2.7789
1560.00 1487.0043 1034.8703 34.6098 2.7585
1570.00 1487.0882 1034.9197 34.6108 2.7381
1580.00 1487.1721 1034.9691 34.6118 2.7176
1590.00 1487.2561 1035.0185 34.6128 2.6972
1600.00 1487.3400 1035.0679 34.6138 2.6768
1610.00 1487.4239 1035.1173 34.6148 2.6564
1620.00 1487.5078 1035.1667 34.6157 2.6360
1630.00 1487.5917 1035.2161 34.6167 2.6156
1640.00 1487.6845 1035.2651 34.6176 2.5972
1650.00 1487.7836 1035.3139 34.6185 2.5803
1660.00 1487.8827 1035.3627 34.6193 2.5634
1670.00 1487.9818 1035.4115 34.6202 2.5465
1680.00 1488.0809 1035.4603 34.6210 2.5296
1690.00 1488.1800 1035.5091 34.6219 2.5127
1700.00 1488.2791 1035.5579 34.6227 2.4958
1710.00 1488.3782 1035.6066 34.6236 2.4789
1720.00 1488.4773 1035.6554 34.6244 2.4620
1730.00 1488.5764 1035.7042 34.6253 2.4450
1740.00 1488.6755 1035.7530 34.6261 2.4281
1750.00 1488.7745 1035.8018 34.6269 2.4112
1760.00 1488.8736 1035.8506 34.6278 2.3943
1770.00 1488.9796 1035.8991 34.6286 2.3790
1780.00 1489.0929 1035.9473 34.6292 2.3653
1790.00 1489.2061 1035.9955 34.6299 2.3516
1800.00 1489.3194 1036.0437 34.6306 2.3379
1810.00 1489.4327 1036.0920 34.6313 2.3243
1820.00 1489.5459 1036.1402 34.6320 2.3106
1830.00 1489.6592 1036.1884 34.6327 2.2969
1840.00 1489.7725 1036.2366 34.6334 2.2832
1850.00 1489.8857 1036.2848 34.6341 2.2695
1860.00 1489.9990 1036.3330 34.6348 2.2558
1870.00 1490.1122 1036.3812 34.6354 2.2421
1880.00 1490.2255 1036.4294 34.6361 2.2285
1890.00 1490.3388 1036.4776 34.6368 2.2148
1900.00 1490.4520 1036.5258 34.6375 2.2011
1910.00 1490.5653 1036.5740 34.6382 2.1874
1920.00 1490.6857 1036.6219 34.6388 2.1753
1930.00 1490.8113 1036.6696 34.6394 2.1644
1940.00 1490.9369 1036.7173 34.6399 2.1534
1950.00 1491.0624 1036.7650 34.6405 2.1425
1960.00 1491.1880 1036.8126 34.6410 2.1315
1970.00 1491.3136 1036.8603 34.6415 2.1206
1980.00 1491.4391 1036.9080 34.6421 2.1096
1990.00 1491.5647 1036.9557 34.6426 2.0987
2000.00 1491.6903 1037.0034 34.6432 2.0877
2010.00 1491.8158 1037.0510 34.6437 2.0768
2020.00 1491.9414 1037.0987 34.6443 2.0658
2030.00 1492.0670 1037.1464 34.6448 2.0549
2040.00 1492.1926 1037.1941 34.6454 2.0439
2050.00 1492.3181 1037.2418 34.6459 2.0330
2060.00 1492.4437 1037.2894 34.6465 2.0220
2070.00 1492.5693 1037.3371 34.6470 2.0111
2080.00 1492.6948 1037.3848 34.6476 2.0001
2090.00 1492.8265 1037.4322 34.6480 1.9905
2100.00 1492.9623 1037.4794 34.6485 1.9817
2110.00 1493.0981 1037.5266 34.6489 1.9730
2120.00 1493.2339 1037.5738 34.6493 1.9643
2130.00 1493.3697 1037.6211 34.6498 1.9555
2140.00 1493.5055 1037.6683 34.6502 1.9468
2150.00 1493.6414 1037.7155 34.6506 1.9380
2160.00 1493.7772 1037.7627 34.6511 1.9293
2170.00 1493.9130 1037.8099 34.6515 1.9206
2180.00 1494.0488 1037.8571 34.6519 1.9118
2190.00 1494.1846 1037.9044 34.6524 1.9031
2200.00 1494.3204 1037.9516 34.6528 1.8943
2210.00 1494.4562 1037.9988 34.6532 1.8856
2220.00 1494.5920 1038.0460 34.6536 1.8768
2230.00 1494.7278 1038.0932 34.6541 1.8681
2240.00 1494.8636 1038.1404 34.6545 1.8594
2250.00 1494.9994 1038.1877 34.6549 1.8506
2260.00 1495.1353 1038.2349 34.6554 1.8419
2270.00 1495.2711 1038.2821 34.6558 1.8331
2280.00 1495.4100 1038.3292 34.6562 1.8250
2290.00 1495.5542 1038.3760 34.6565 1.8180
2300.00 1495.6983 1038.4228 34.6569 1.8110
2310.00 1495.8425 1038.4696 34.6572 1.8040
2320.00 1495.9867 1038.5164 34.6576 1.7970
2330.00 1496.1308 1038.5632 34.6579 1.7900
2340.00 1496.2750 1038.6100 34.6582 1.7830
2350.00 1496.4191 1038.6568 34.6586 1.7760
2360.00 1496.5633 1038.7036 34.6589 1.7690
2370.00 1496.7075 1038.7504 34.6592 1.7620
2380.00 1496.8516 1038.7972 34.6596 1.7549
2390.00 1496.9958 1038.8440 34.6599 1.7479
2400.00 1497.1399 1038.8908 34.6603 1.7409
2410.00 1497.2841 1038.9376 34.6606 1.7339
2420.00 1497.4283 1038.9845 34.6609 1.7269
2430.00 1497.5724 1039.0313 34.6613 1.7199
2440.00 1497.7166 1039.0781 34.6616 1.7129
2450.00 1497.8607 1039.1249 34.6620 1.7059
2460.00 1498.0049 1039.1717 34.6623 1.6989
2470.00 1498.1491 1039.2185 34.6626 1.6919
2480.00 1498.2932 1039.2653 34.6630 1.6848
2490.00 1498.4374 1039.3121 34.6633 1.6778
2500.00 1498.5875 1039.3586 34.6636 1.6720
2510.00 1498.7384 1039.4050 34.6639 1.6663
2520.00 1498.8893 1039.4515 34.6641 1.6606
2530.00 1499.0403 1039.4979 34.6644 1.6550
2540.00 1499.1912 1039.5444 34.6647 1.6493
2550.00 1499.3421 1039.5908 34.6650 1.6436
2560.00 1499.4931 1039.6373 34.6652 1.6379
2570.00 1499.6440 1039.6837 34.6655 1.6323
2580.00 1499.7949 1039.7302 34.6658 1.6266
2590.00 1499.9459 1039.7766 34.6661 1.6209
2600.00 1500.0968 1039.8231 34.6663 1.6152
2610.00 1500.2477 1039.8695 34.6666 1.6096
2620.00 1500.3987 1039.9159 34.6669 1.6039
2630.00 1500.5496 1039.9624 34.6671 1.5982
2640.00 1500.7005 1040.0088 34.6674 1.5925
2650.00 1500.8515 1040.0553 34.6677 1.5868
2660.00 1501.0024 1040.1017 34.6680 1.5812
2670.00 1501.1534 1040.1482 34.6682 1.5755
2680.00 1501.3043 1040.1946 34.6685 1.5698
2690.00 1501.4552 1040.2411 34.6688 1.5641
2700.00 1501.6062 1040.2875 34.6691 1.5585
2710.00 1501.7571 1040.3340 34.6693 1.5528
2720.00 1501.9080 1040.3804 34.6696 1.5471
2730.00 1502.0594 1040.4268 34.6699 1.5415
2740.00 1502.2157 1040.4730 34.6701 1.5368
2750.00 1502.3720 1040.5191 34.6703 1.5321
2760.00 1502.5284 1040.5652 34.6706 1.5275
2770.00 1502.6847 1040.6113 34.6708 1.5228
2780.00 1502.8410 1040.6575 34.6710 1.5181
2790.00 1502.9974 1040.7036 34.6712 1.5134
2800.00 1503.1537 1040.7497 34.6715 1.5087
2810.00 1503.3100 1040.7958 34.6717 1.5040
2820.00 1503.4664 1040.8420 34.6719 1.4993
2830.00 1503.6227 1040.8881 34.6721 1.4946
2840.00 1503.7790 1040.9342 34.6724 1.4900
2850.00 1503.9354 1040.9803 34.6726 1.4853
2860.00 1504.0917 1041.0265 34.6728 1.4806
2870.00 1504.2480 1041.0726 34.6731 1.4759
2880.00 1504.4044 1041.1187 34.6733 1.4712
2890.00 1504.5607 1041.1648 34.6735 1.4665
2900.00 1504.7170 1041.2110 34.6737 1.4618
2910.00 1504.8734 1041.2571 34.6740 1.4571
2920.00 1505.0297 1041.3032 34.6742 1.4525
2930.00 1505.1860 1041.3493 34.6744 1.4478
2940.00 1505.3424 1041.3955 34.6746 1.4431
2950.00 1505.4987 1041.4416 34.6749 1.4384
2960.00 1505.6550 1041.4877 34.6751 1.4337
2970.00 1505.8114 1041.5338 34.6753 1.4290
2980.00 1505.9677 1041.5800 34.6756 1.4243
2990.00 1506.1240 1041.6261 34.6758 1.4197
3000.00 1506.2845 1041.6719 34.6760 1.4156
3010.00 1506.4451 1041.7178 34.6762 1.4117
3020.00 1506.6057 1041.7636 34.6764 1.4077
3030.00 1506.7662 1041.8094 34.6766 1.4037
3040.00 1506.9268 1041.8553 34.6768 1.3997
3050.00 1507.0874 1041.9011 34.6770 1.3957
3060.00 1507.2480 1041.9469 34.6772 1.3917
3070.00 1507.4085 1041.9928 34.6774 1.3877
3080.00 1507.5691 1042.0386 34.6776 1.3838
3090.00 1507.7297 1042.0844 34.6778 1.3798
3100.00 1507.8903 1042.1303 34.6780 1.3758
3110.00 1508.0508 1042.1761 34.6782 1.3718
3120.00 1508.2114 1042.2219 34.6784 1.3678
3130.00 1508.3720 1042.2678 34.6786 1.3638
3140.00 1508.5326 1042.3136 34.6788 1.3598
3150.00 1508.6931 1042.3594 34.6790 1.3558
3160.00 1508.8537 1042.4053 34.6792 1.3519
3170.00 1509.0143 1042.4511 34.6794 1.3479
3180.00 1509.1749 1042.4969 34.6796 1.3439
3190.00 1509.3354 1042.5428 34.6798 1.3399
3200.00 1509.4960 1042.5886 34.6800 1.3359
3210.00 1509.6566 1042.6344 34.6802 1.3319
3220.00 1509.8172 1042.6803 34.6804 1.3279
3230.00 1509.9777 1042.7261 34.6806 1.3239
3240.00 1510.1383 1042.7720 34.6808 1.3200
3250.00 1510.2989 1042.8178 34.6810 1.3160
3260.00 1510.4595 1042.8636 34.6812 1.3120
3270.00 1510.6200 1042.9095 34.6814 1.3080
3280.00 1510.7822 1042.9551 34.6816 1.3042
3290.00 1510.9457 1043.0007 34.6818 1.3006
3300.00 1511.1091 1043.0463 34.6820 1.2970
3310.00 1511.2725 1043.0919 34.6822 1.2933
3320.00 1511.4359 1043.1375 34.6824 1.2897
3330.00 1511.5993 1043.1831 34.6826 1.2861
3340.00 1511.7627 1043.2287 34.6828 1.2825
3350.00 1511.9261 1043.2743 34.6830 1.2788
3360.00 1512.0895 1043.3199 34.6832 1.2752
3370.00 1512.2529 1043.3655 34.6834 1.2716
3380.00 1512.4163 1043.4110 34.6836 1.2680
3390.00 1512.5798 1043.4566 34.6838 1.2643
3400.00 1512.7432 1043.5022 34.6840 1.2607
3410.00 1512.9066 1043.5478 34.6842 1.2571
3420.00 1513.0700 1043.5934 34.6844 1.2535
3430.00 1513.2334 1043.6390 34.6846 1.2498
3440.00 1513.3968 1043.6846 34.6847 1.2462
3450.00 1513.5602 1043.7302 34.6849 1.2426
3460.00 1513.7236 1043.7758 34.6851 1.2389
3470.00 1513.8870 1043.8213 34.6853 1.2353
3480.00 1514.0504 1043.8669 34.6855 1.2317
3490.00 1514.2139 1043.9125 34.6857 1.2281
3500.00 1514.3773 1043.9581 34.6859 1.2244
3510.00 1514.5407 1044.0037 34.6861 1.2208
3520.00 1514.7041 1044.0493 34.6863 1.2172
3530.00 1514.8675 1044.0949 34.6865 1.2136
3540.00 1515.0309 1044.1405 34.6867 1.2099
3550.00 1515.1943 1044.1861 34.6869 1.2063
3560.00 1515.3577 1044.2317 34.6871 1.2027
3570.00 1515.5211 1044.2772 34.6873 1.1991
3580.00 1515.6845 1044.3228 34.6875 1.1954
3590.00 1515.8500 1044.3682 34.6877 1.1920
3600.00 1516.0157 1044.4136 34.6879 1.1886
3610.00 1516.1814 1044.4589 34.6881 1.1852
3620.00 1516.3471 1044.5043 34.6883 1.1818
3630.00 1516.5128 1044.5496 34.6885 1.1784
3640.00 1516.6785 1044.5950 34.6887 1.1750
3650.00 1516.8442 1044.6404 34.6889 1.1715
3660.00 1517.0099 1044.6857 34.6891 1.1681
3670.00 1517.1756 1044.7311 34.6893 1.1647
3680.00 1517.3413 1044.7764 34.6895 1.1613
3690.00 1517.5070 1044.8218 34.6897 1.1579
3700.00 1517.6727 1044.8671 34.6899 1.1545
3710.00 1517.8384 1044.9125 34.6901 1.1511
3720.00 1518.0041 1044.9579 34.6903 1.1477
3730.00 1518.1698 1045.0032 34.6905 1.1443
3740.00 1518.3354 1045.0486 34.6907 1.1409
3750.00 1518.5011 1045.0939 34.6909 1.1375
3760.00 1518.6668 1045.1393 34.6911 1.1341
3770.00 1518.8325 1045.1847 34.6913 1.1307
3780.00 1518.9982 1045.2300 34.6915 1.1272
3790.00 1519.1639 1045.2754 34.6917 1.1238
3800.00 1519.3296 1045.3207 34.6919 1.1204
3810.00 1519.4953 1045.3661 34.6921 1.1170
3820.00 1519.6610 1045.4114 34.6923 1.1136
3830.00 1519.8267 1045.4568 34.6925 1.1102
3840.00 1519.9924 1045.5022 34.6927 1.1068
3850.00 1520.1581 1045.5475 34.6929 1.1034
3860.00 1520.3238 1045.5929 34.6931 1.1000
3870.00 1520.4895 1045.6382 34.6933 1.0966
3880.00 1520.6552 1045.6836 34.6935 1.0932
3890.00 1520.8209 1045.7289 34.6937 1.0898
3900.00 1520.9866 1045.7743 34.6939 1.0863
3910.00 1521.1523 1045.8197 34.6941 1.0829
3920.00 1521.3207 1045.8648 34.6943 1.0799
3930.00 1521.4895 1045.9098 34.6945 1.0768
3940.00 1521.6583 1045.9549 34.6947 1.0738
3950.00 1521.8270 1046.0000 34.6949 1.0708
3960.00 1521.9958 1046.0450 34.6951 1.0678
3970.00 1522.1645 1046.0901 34.6953 1.0647
3980.00 1522.3333 1046.1352 34.6955 1.0617
3990.00 1522.5021 1046.1802 34.6957 1.0587
4000.00 1522.6708 1046.2253 34.6958 1.0556
4010.00 1522.8396 1046.2704 34.6960 1.0526
4020.00 1523.0084 1046.3154 34.6962 1.0496
4030.00 1523.1771 1046.3605 34.6964 1.0466
4040.00 1523.3459 1046.4056 34.6966 1.0435
4050.00 1523.5147 1046.4506 34.6968 1.0405
4060.00 1523.6834 1046.4957 34.6970 1.0375
4070.00 1523.8522 1046.5408 34.6972 1.0345
4080.00 1524.0210 1046.5858 34.6974 1.0314
4090.00 1524.1897 1046.6309 34.6976 1.0284
4100.00 1524.3585 1046.6760 34.6977 1.0254
4110.00 1524.5273 1046.7210 34.6979 1.0224
4120.00 1524.6960 1046.7661 34.6981 1.0193
4130.00 1524.8648 1046.8112 34.6983 1.0163
4140.00 1525.0336 1046.8562 34.6985 1.0133
4150.00 1525.2023 1046.9013 34.6987 1.0102
4160.00 1525.3711 1046.9464 34.6989 1.0072
4170.00 1525.5399 1046.9914 34.6991 1.0042
4180.00 1525.7086 1047.0365 34.6993 1.0012
4190.00 1525.8774 1047.0816 34.6995 0.9981
4200.00 1526.0462 1047.1266 34.6997 0.9951
4210.00 1526.2149 1047.1717 34.6998 0.9921
4220.00 1526.3837 1047.2168 34.7000 0.9891
4230.00 1526.5525 1047.2618 34.7002 0.9860
4240.00 1526.7212 1047.3069 34.7004 0.9830
4250.00 1526.8900 1047.3520 34.7006 0.9800
4260.00 1527.0588 1047.3970 34.7008 0.9770
4270.00 1527.2314 1047.4418 34.7009 0.9746
4280.00 1527.4068 1047.4864 34.7011 0.9728
4290.00 1527.5822 1047.5309 34.7012 0.9710
4300.00 1527.7577 1047.5755 34.7013 0.9691
4310.00 1527.9331 1047.6201 34.7014 0.9673
4320.00 1528.1086 1047.6646 34.7016 0.9655
4330.00 1528.2840 1047.7092 34.7017 0.9636
4340.00 1528.4594 1047.7537 34.7018 0.9618
4350.00 1528.6349 1047.7983 34.7019 0.9600
4360.00 1528.8103 1047.8429 34.7020 0.9581
4370.00 1528.9858 1047.8874 34.7022 0.9563
4380.00 1529.1612 1047.9320 34.7023 0.9545
4390.00 1529.3366 1047.9765 34.7024 0.9526
4400.00 1529.5121 1048.0211 34.7025 0.9508
4410.00 1529.6875 1048.0657 34.7027 0.9490
4420.00 1529.8630 1048.1102 34.7028 0.9471
4430.00 1530.0384 1048.1548 34.7029 0.9453
4440.00 1530.2138 1048.1993 34.7030 0.9435
4450.00 1530.3893 1048.2439 34.7031 0.9416
4460.00 1530.5647 1048.2885 34.7033 0.9398
4470.00 1530.7402 1048.3330 34.7034 0.9380
4480.00 1530.9156 1048.3776 34.7035 0.9361
4490.00 1531.0911 1048.4221 34.7036 0.9343
4500.00 1531.2665 1048.4667 34.7038 0.9325
4510.00 1531.4419 1048.5113 34.7039 0.9306
4520.00 1531.6174 1048.5558 34.7040 0.9288
4530.00 1531.7928 1048.6004 34.7041 0.9270
4540.00 1531.9683 1048.6449 34.7042 0.9251
4550.00 1532.1437 1048.6895 34.7044 0.9233
4560.00 1532.3191 1048.7341 34.7045 0.9215
4570.00 1532.4946 1048.7786 34.7046 0.9196
4580.00 1532.6700 1048.8232 34.7047 0.9178
4590.00 1532.8455 1048.8677 34.7049 0.9160
4600.00 1533.0209 1048.9123 34.7050 0.9141
4610.00 1533.1963 1048.9569 34.7051 0.9123
4620.00 1533.3718 1049.0014 34.7052 0.9105
4630.00 1533.5472 1049.0460 34.7053 0.9086
4640.00 1533.7227 1049.0905 34.7055 0.9068
4650.00 1533.8494 1049.1376 34.7063 0.8935
4660.00 1534.0343 1049.1815 34.7063 0.8935
4670.00 1534.2191 1049.2253 34.7063 0.8935
4680.00 1534.4040 1049.2691 34.7063 0.8935
4690.00 1534.5889 1049.3130 34.7063 0.8935
4700.00 1534.7737 1049.3568 34.7063 0.8935
4710.00 1534.9586 1049.4007 34.7063 0.8935
4720.00 1535.1435 1049.4445 34.7063 0.8935
4730.00 1535.3284 1049.4884 34.7063 0.8935
4740.00 1535.5132 1049.5322 34.7063 0.8935
4750.00 1535.6981 1049.5761 34.7063 0.8935
4760.00 1535.8830 1049.6199 34.7063 0.8935
4770.00 1536.0678 1049.6638 34.7063 0.8935
4780.00 1536.2527 1049.7076 34.7063 0.8935
4790.00 1536.4376 1049.7515 34.7063 0.8935
4800.00 1536.6224 1049.7953 34.7063 0.8935
4810.00 1536.8073 1049.8392 34.7063 0.8935
4820.00 1536.9922 1049.8830 34.7063 0.8935
4830.00 1537.1770 1049.9269 34.7063 0.8935
4840.00 1537.3619 1049.9707 34.7063 0.8935
4850.00 1537.5468 1050.0146 34.7063 0.8935
4860.00 1537.7316 1050.0584 34.7063 0.8935
4870.00 1537.9165 1050.1023 34.7063 0.8935
4880.00 1538.1014 1050.1461 34.7063 0.8935
4890.00 1538.2862 1050.1900 34.7063 0.8935
4900.00 1538.4711 1050.2338 34.7063 0.8935
4910.00 1538.6560 1050.2777 34.7063 0.8935
4920.00 1538.8409 1050.3215 34.7063 0.8935
4930.00 1539.0257 1050.3654 34.7063 0.8935
4940.00 1539.2106 1050.4092 34.7063 0.8935
4950.00 1539.3955 1050.4531 34.7063 0.8935
4960.00 1539.5803 1050.4969 34.7063 0.8935
4970.00 1539.7652 1050.5408 34.7063 0.8935
4980.00 1539.9501 1050.5846 34.7063 0.8935
4990.00 1540.1349 1050.6284 34.7063 0.8935
5000.00 1540.3198 1050.6723 34.7063 0.8935
5010.00 1540.5047 1050.7161 34.7063 0.8935
5020.00 1540.6895 1050.7600 34.7063 0.8935
5030.00 1540.8744 1050.8038 34.7063 0.8935
5040.00 nan nan nan nan
5050.00 nan nan nan nan
5060.00 nan nan nan nan
5070.00 nan nan nan nan
5080.00 nan nan nan nan
5090.00 nan nan nan nan
5100.00 nan nan nan nan
5110.00 nan nan nan nan
5120.00 nan nan nan nan
5130.00 nan nan nan nan
5140.00 nan nan nan nan
5150.00 nan nan nan nan
5160.00 nan nan nan nan
5170.00 nan nan nan nan
5180.00 nan nan nan nan
5190.00 nan nan nan nan
5200.00 nan nan nan nan
5210.00 nan nan nan nan
5220.00 nan nan nan nan
5230.00 nan nan nan nan
5240.00 nan nan nan nan
5250.00 nan nan nan nan
5260.00 nan nan nan nan
5270.00 nan nan nan nan
5280.00 nan nan nan nan
5290.00 nan nan nan nan
5300.00 nan nan nan nan
5310.00 nan nan nan nan
5320.00 nan nan nan nan
5330.00 nan nan nan nan
5340.00 nan nan nan nan
5350.00 nan nan nan nan
5360.00 nan nan nan nan
5370.00 nan nan nan nan
5380.00 nan nan nan nan
5390.00 nan nan nan nan
5400.00 nan nan nan nan
5410.00 nan nan nan nan
5420.00 nan nan nan nan
5430.00 nan nan nan nan
5440.00 nan nan nan nan
5450.00 nan nan nan nan
5460.00 nan nan nan nan
5470.00 nan nan nan nan
5480.00 nan nan nan nan
5490.00 nan nan nan nan
5500.00 nan nan nan nan
5510.00 nan nan nan nan
5520.00 nan nan nan nan
5530.00 nan nan nan nan
5540.00 nan nan nan nan
5550.00 nan nan nan nan
5560.00 nan nan nan nan
5570.00 nan nan nan nan
5580.00 nan nan nan nan
5590.00 nan nan nan nan
5600.00 nan nan nan nan
5610.00 nan nan nan nan
5620.00 nan nan nan nan
5630.00 nan nan nan nan
5640.00 nan nan nan nan
5650.00 nan nan nan nan
5660.00 nan nan nan nan
5670.00 nan nan nan nan
5680.00 nan nan nan nan
5690.00 nan nan nan nan
5700.00 nan nan nan nan
5710.00 nan nan nan nan
5720.00 nan nan nan nan
5730.00 nan nan nan nan
5740.00 nan nan nan nan
5750.00 nan nan nan nan
5760.00 nan nan nan nan
5770.00 nan nan nan nan
5780.00 nan nan nan nan
5790.00 nan nan nan nan
5800.00 nan nan nan nan
5810.00 nan nan nan nan
5820.00 nan nan nan nan
5830.00 nan nan nan nan
5840.00 nan nan nan nan
5850.00 nan nan nan nan
5860.00 nan nan nan nan
5870.00 nan nan nan nan
5880.00 nan nan nan nan
5890.00 nan nan nan nan
5900.00 nan nan nan nan
5910.00 nan nan nan nan
5920.00 nan nan nan nan
5930.00 nan nan nan nan
5940.00 nan nan nan nan
5950.00 nan nan nan nan
5960.00 nan nan nan nan
5970.00 nan nan nan nan
5980.00 nan nan nan nan
5990.00 nan nan nan nan
6000.00 nan nan nan nan
6010.00 nan nan nan nan
6020.00 nan nan nan nan
6030.00 nan nan nan nan
6040.00 nan nan nan nan
6050.00 nan nan nan nan
6060.00 nan nan nan nan
6070.00 nan nan nan nan
6080.00 nan nan nan nan
6090.00 nan nan nan nan
6100.00 nan nan nan nan
6110.00 nan nan nan nan
6120.00 nan nan nan nan
6130.00 nan nan nan nan
6140.00 nan nan nan nan
6150.00 nan nan nan nan
6160.00 nan nan nan nan
6170.00 nan nan nan nan
6180.00 nan nan nan nan
6190.00 nan nan nan nan
6200.00 nan nan nan nan
6210.00 nan nan nan nan
6220.00 nan nan nan nan
6230.00 nan nan nan nan
6240.00 nan nan nan nan
6250.00 nan nan nan nan
6260.00 nan nan nan nan
6270.00 nan nan nan nan
6280.00 nan nan nan nan
6290.00 nan nan nan nan
6300.00 nan nan nan nan
6310.00 nan nan nan nan
6320.00 nan nan nan nan
6330.00 nan nan nan nan
6340.00 nan nan nan nan
6350.00 nan nan nan nan
6360.00 nan nan nan nan
6370.00 nan nan nan nan
6380.00 nan nan nan nan
6390.00 nan nan nan nan
6400.00 nan nan nan nan
6410.00 nan nan nan nan
6420.00 nan nan nan nan
6430.00 nan nan nan nan
6440.00 nan nan nan nan
6450.00 nan nan nan nan
6460.00 nan nan nan nan
6470.00 nan nan nan nan
6480.00 nan nan nan nan
6490.00 nan nan nan nan
6500.00 nan nan nan nan
6510.00 nan nan nan nan
6520.00 nan nan nan nan
6530.00 nan nan nan nan
6540.00 nan nan nan nan
6550.00 nan nan nan nan
6560.00 nan nan nan nan
6570.00 nan nan nan nan
6580.00 nan nan nan nan
6590.00 nan nan nan nan
6600.00 nan nan nan nan
6610.00 nan nan nan nan
6620.00 nan nan nan nan
6630.00 nan nan nan nan
6640.00 nan nan nan nan
6650.00 nan nan nan nan
6660.00 nan nan nan nan
6670.00 nan nan nan nan
6680.00 nan nan nan nan
6690.00 nan nan nan nan
6700.00 nan nan nan nan
6710.00 nan nan nan nan
6720.00 nan nan nan nan
6730.00 nan nan nan nan
6740.00 nan nan nan nan
6750.00 nan nan nan nan
6760.00 nan nan nan nan
6770.00 nan nan nan nan
6780.00 nan nan nan nan
6790.00 nan nan nan nan
6800.00 nan nan nan nan
6810.00 nan nan nan nan
6820.00 nan nan nan nan
6830.00 nan nan nan nan
6840.00 nan nan nan nan
6850.00 nan nan nan nan
6860.00 nan nan nan nan
6870.00 nan nan nan nan
6880.00 nan nan nan nan
6890.00 nan nan nan nan
6900.00 nan nan nan nan
6910.00 nan nan nan nan
6920.00 nan nan nan nan
6930.00 nan nan nan nan
6940.00 nan nan nan nan
6950.00 nan nan nan nan
6960.00 nan nan nan nan
6970.00 nan nan nan nan
6980.00 nan nan nan nan
6990.00 nan nan nan nan
7000.00 nan nan nan nan
7010.00 nan nan nan nan
7020.00 nan nan nan nan
7030.00 nan nan nan nan
7040.00 nan nan nan nan
7050.00 nan nan nan nan
7060.00 nan nan nan nan
7070.00 nan nan nan nan
7080.00 nan nan nan nan
7090.00 nan nan nan nan
7100.00 nan nan nan nan
7110.00 nan nan nan nan
7120.00 nan nan nan nan
7130.00 nan nan nan nan
7140.00 nan nan nan nan
7150.00 nan nan nan nan
7160.00 nan nan nan nan
7170.00 nan nan nan nan
7180.00 nan nan nan nan
7190.00 nan nan nan nan
7200.00 nan nan nan nan
7210.00 nan nan nan nan
7220.00 nan nan nan nan
7230.00 nan nan nan nan
7240.00 nan nan nan nan
7250.00 nan nan nan nan
7260.00 nan nan nan nan
7270.00 nan nan nan nan
7280.00 nan nan nan nan
7290.00 nan nan nan nan
7300.00 nan nan nan nan
7310.00 nan nan nan nan
7320.00 nan nan nan nan
7330.00 nan nan nan nan
7340.00 nan nan nan nan
7350.00 nan nan nan nan
7360.00 nan nan nan nan
7370.00 nan nan nan nan
7380.00 nan nan nan nan
7390.00 nan nan nan nan
7400.00 nan nan nan nan
7410.00 nan nan nan nan
7420.00 nan nan nan nan
7430.00 nan nan nan nan
7440.00 nan nan nan nan
7450.00 nan nan nan nan
7460.00 nan nan nan nan
7470.00 nan nan nan nan
7480.00 nan nan nan nan
7490.00 nan nan nan nan
7500.00 nan nan nan nan
7510.00 nan nan nan nan
7520.00 nan nan nan nan
7530.00 nan nan nan nan
7540.00 nan nan nan nan
7550.00 nan nan nan nan
7560.00 nan nan nan nan
7570.00 nan nan nan nan
7580.00 nan nan nan nan
7590.00 nan nan nan nan
7600.00 nan nan nan nan
7610.00 nan nan nan nan
7620.00 nan nan nan nan
7630.00 nan nan nan nan
7640.00 nan nan nan nan
7650.00 nan nan nan nan
7660.00 nan nan nan nan
7670.00 nan nan nan nan
7680.00 nan nan nan nan
7690.00 nan nan nan nan
7700.00 nan nan nan nan
7710.00 nan nan nan nan
7720.00 nan nan nan nan
7730.00 nan nan nan nan
7740.00 nan nan nan nan
7750.00 nan nan nan nan
7760.00 nan nan nan nan
7770.00 nan nan nan nan
7780.00 nan nan nan nan
7790.00 nan nan nan nan
7800.00 nan nan nan nan
7810.00 nan nan nan nan
7820.00 nan nan nan nan
7830.00 nan nan nan nan
7840.00 nan nan nan nan
7850.00 nan nan nan nan
7860.00 nan nan nan nan
7870.00 nan nan nan nan
7880.00 nan nan nan nan
7890.00 nan nan nan nan
7900.00 nan nan nan nan
7910.00 nan nan nan nan
7920.00 nan nan nan nan
7930.00 nan nan nan nan
7940.00 nan nan nan nan
7950.00 nan nan nan nan
7960.00 nan nan nan nan
7970.00 nan nan nan nan
7980.00 nan nan nan nan
7990.00 nan nan nan nan
