# Averages over distance (i) for each depth (k):
# Depth(m) Speed(m/s) Density(kg/m^3) Salt PSU Theta(degC)
0.00 1540.7636 1022.5795 35.1267 27.7286
10.00 1540.8998 1022.6290 35.1281 27.7122
20.00 1540.9706 1022.6910 35.1325 27.6646
30.00 1540.8696 1022.7861 35.1457 27.5349
40.00 1540.5960 1022.9109 35.1642 27.3254
50.00 1540.2328 1023.0467 35.1814 27.0778
60.00 1539.8386 1023.1838 35.1962 26.8195
70.00 1539.4172 1023.3225 35.2100 26.5518
80.00 1538.9247 1023.4698 35.2237 26.2554
90.00 1538.2964 1023.6329 35.2363 25.9037
100.00 1537.4626 1023.8172 35.2448 25.4705
110.00 1536.3690 1024.0234 35.2443 24.9387
120.00 1535.0147 1024.2455 35.2306 24.3144
130.00 1533.4623 1024.4735 35.2040 23.6273
140.00 1531.7977 1024.6995 35.1681 22.9121
150.00 1530.1229 1024.9094 35.1251 22.2158
160.00 1528.5015 1025.1059 35.0807 21.5521
170.00 1526.9232 1025.2916 35.0352 20.9148
180.00 1525.4436 1025.4591 34.9902 20.3298
190.00 1523.9953 1025.6208 34.9454 19.7612
200.00 1522.6152 1025.7715 34.9022 19.2271
210.00 1521.2967 1025.9123 34.8602 18.7241
220.00 1519.9781 1026.0531 34.8183 18.2210
230.00 1518.7318 1026.1821 34.7791 17.7561
240.00 1517.5122 1026.3068 34.7408 17.3054
250.00 1516.2927 1026.4314 34.7026 16.8547
260.00 1515.0857 1026.5531 34.6653 16.4127
270.00 1513.9159 1026.6664 34.6308 15.9967
280.00 1512.7461 1026.7796 34.5964 15.5807
290.00 1511.5763 1026.8928 34.5620 15.1646
300.00 1510.4067 1027.0060 34.5276 14.7488
310.00 1509.2676 1027.1106 34.4982 14.3607
320.00 1508.1284 1027.2151 34.4689 13.9726
330.00 1506.9893 1027.3197 34.4396 13.5845
340.00 1505.8502 1027.4242 34.4103 13.1964
350.00 1504.7110 1027.5288 34.3810 12.8082
360.00 1503.6403 1027.6257 34.3591 12.4560
370.00 1502.5745 1027.7221 34.3378 12.1064
380.00 1501.5087 1027.8185 34.3164 11.7569
390.00 1500.4429 1027.9149 34.2951 11.4073
400.00 1499.3772 1028.0113 34.2738 11.0577
410.00 1498.3125 1028.1076 34.2526 10.7085
420.00 1497.4049 1028.1957 34.2417 10.4166
430.00 1496.4972 1028.2838 34.2308 10.1246
440.00 1495.5896 1028.3719 34.2199 9.8327
450.00 1494.6819 1028.4600 34.2090 9.5408
460.00 1493.7743 1028.5481 34.1982 9.2489
470.00 1492.8666 1028.6362 34.1873 8.9570
480.00 1492.0213 1028.7222 34.1791 8.6838
490.00 1491.3599 1028.8020 34.1786 8.4662
500.00 1490.6986 1028.8819 34.1781 8.2485
510.00 1490.0372 1028.9617 34.1776 8.0309
520.00 1489.3759 1029.0415 34.1771 7.8132
530.00 1488.7145 1029.1213 34.1767 7.5956
540.00 1488.0531 1029.2012 34.1762 7.3779
550.00 1487.3918 1029.2810 34.1757 7.1603
560.00 1486.9347 1029.3551 34.1806 6.9981
570.00 1486.5535 1029.4270 34.1874 6.8566
580.00 1486.1723 1029.4990 34.1943 6.7150
590.00 1485.7911 1029.5710 34.2012 6.5735
600.00 1485.4100 1029.6429 34.2080 6.4320
610.00 1485.0288 1029.7149 34.2149 6.2904
620.00 1484.6476 1029.7869 34.2217 6.1489
630.00 1484.2665 1029.8588 34.2286 6.0074
640.00 1484.0025 1029.9272 34.2369 5.8961
650.00 1483.8440 1029.9924 34.2465 5.8121
660.00 1483.6855 1030.0577 34.2561 5.7280
670.00 1483.5270 1030.1229 34.2657 5.6440
680.00 1483.3685 1030.1881 34.2753 5.5599
690.00 1483.2100 1030.2533 34.2849 5.4759
700.00 1483.0515 1030.3186 34.2945 5.3919
710.00 1482.8930 1030.3838 34.3041 5.3078
720.00 1482.7345 1030.4490 34.3137 5.2238
730.00 1482.6650 1030.5103 34.3225 5.1626
740.00 1482.6236 1030.5704 34.3310 5.1087
750.00 1482.5822 1030.6305 34.3395 5.0548
760.00 1482.5409 1030.6906 34.3481 5.0008
770.00 1482.4995 1030.7507 34.3566 4.9469
780.00 1482.4581 1030.8108 34.3652 4.8930
790.00 1482.4168 1030.8709 34.3737 4.8390
800.00 1482.3754 1030.9309 34.3823 4.7851
810.00 1482.3340 1030.9910 34.3908 4.7312
820.00 1482.3185 1031.0491 34.3980 4.6842
830.00 1482.3240 1031.1055 34.4041 4.6429
840.00 1482.3294 1031.1619 34.4102 4.6015
850.00 1482.3348 1031.2183 34.4163 4.5602
860.00 1482.3402 1031.2747 34.4224 4.5188
870.00 1482.3456 1031.3311 34.4285 4.4775
880.00 1482.3511 1031.3875 34.4346 4.4361
890.00 1482.3565 1031.4439 34.4408 4.3948
900.00 1482.3619 1031.5003 34.4469 4.3535
910.00 1482.3679 1031.5567 34.4529 4.3123
920.00 1482.3958 1031.6105 34.4569 4.2773
930.00 1482.4236 1031.6644 34.4609 4.2423
940.00 1482.4514 1031.7183 34.4649 4.2073
950.00 1482.4793 1031.7721 34.4689 4.1723
960.00 1482.5071 1031.8260 34.4729 4.1372
970.00 1482.5349 1031.8799 34.4770 4.1022
980.00 1482.5628 1031.9337 34.4810 4.0672
990.00 1482.5906 1031.9876 34.4850 4.0322
1000.00 1482.6184 1032.0415 34.4890 3.9972
1010.00 1482.6504 1032.0949 34.4926 3.9634
1020.00 1482.6929 1032.1471 34.4953 3.9324
1030.00 1482.7354 1032.1994 34.4980 3.9015
1040.00 1482.7778 1032.2517 34.5007 3.8706
1050.00 1482.8203 1032.3039 34.5034 3.8397
1060.00 1482.8628 1032.3562 34.5061 3.8088
1070.00 1482.9052 1032.4084 34.5088 3.7779
1080.00 1482.9477 1032.4607 34.5115 3.7470
1090.00 1482.9902 1032.5130 34.5142 3.7160
1100.00 1483.0326 1032.5652 34.5169 3.6851
1110.00 1483.0791 1032.6171 34.5193 3.6553
1120.00 1483.1312 1032.6684 34.5212 3.6271
1130.00 1483.1834 1032.7197 34.5232 3.5988
1140.00 1483.2355 1032.7709 34.5251 3.5706
1150.00 1483.2877 1032.8222 34.5271 3.5423
1160.00 1483.3399 1032.8735 34.5290 3.5141
1170.00 1483.3920 1032.9248 34.5310 3.4858
1180.00 1483.4442 1032.9761 34.5329 3.4576
1190.00 1483.4964 1033.0274 34.5349 3.4293
1200.00 1483.5485 1033.0787 34.5368 3.4011
1210.00 1483.6036 1033.1297 34.5386 3.3736
1220.00 1483.6622 1033.1804 34.5401 3.3471
1230.00 1483.7208 1033.2311 34.5416 3.3206
1240.00 1483.7794 1033.2818 34.5431 3.2941
1250.00 1483.8380 1033.3325 34.5447 3.2676
1260.00 1483.8966 1033.3832 34.5462 3.2411
1270.00 1483.9552 1033.4339 34.5477 3.2146
1280.00 1484.0138 1033.4846 34.5492 3.1882
1290.00 1484.0724 1033.5353 34.5507 3.1617
1300.00 1484.1310 1033.5860 34.5523 3.1352
1310.00 1484.1922 1033.6365 34.5537 3.1093
1320.00 1484.2578 1033.6868 34.5550 3.0846
1330.00 1484.3234 1033.7370 34.5562 3.0599
1340.00 1484.3890 1033.7873 34.5575 3.0352
1350.00 1484.4545 1033.8376 34.5588 3.0105
1360.00 1484.5201 1033.8878 34.5601 2.9858
1370.00 1484.5857 1033.9381 34.5614 2.9611
1380.00 1484.6513 1033.9883 34.5626 2.9363
1390.00 1484.7168 1034.0386 34.5639 2.9116
1400.00 1484.7824 1034.0888 34.5652 2.8869
1410.00 1484.8489 1034.1391 34.5665 2.8624
