# Averages over distance (i) for each depth (k):
# Depth(m) Speed(m/s) Density(kg/m^3) Salt PSU Theta(degC)
0.00 1531.6532 1024.7405 36.1836 23.3226
10.00 1531.7829 1024.7881 36.1829 23.3067
20.00 1531.8564 1024.8409 36.1807 23.2690
30.00 1531.7758 1024.9071 36.1734 23.1725
40.00 1531.4980 1024.9892 36.1587 23.0015
50.00 1531.0637 1025.0829 36.1374 22.7728
60.00 1530.5579 1025.1807 36.1127 22.5193
70.00 1530.0421 1025.2776 36.0869 22.2642
80.00 1529.5414 1025.3710 36.0602 22.0173
90.00 1529.0711 1025.4593 36.0324 21.7843
100.00 1528.6395 1025.5416 36.0034 21.5682
110.00 1528.2451 1025.6180 35.9732 21.3680
120.00 1527.8868 1025.6892 35.9419 21.1831
130.00 1527.5556 1025.7564 35.9099 21.0096
140.00 1527.2346 1025.8211 35.8766 20.8413
150.00 1526.8846 1025.8846 35.8395 20.6651
160.00 1526.4725 1025.9494 35.7973 20.4693
170.00 1526.0102 1026.0152 35.7511 20.2576
180.00 1525.3183 1026.0874 35.6886 19.9726
190.00 1524.5540 1026.1616 35.6209 19.6645
200.00 1523.4822 1026.2476 35.5379 19.2598
210.00 1522.1338 1026.3441 35.4411 18.7685
220.00 1520.7854 1026.4407 35.3443 18.2771
230.00 1519.0187 1026.5581 35.2445 17.6658
240.00 1517.0965 1026.6832 35.1435 17.0099
250.00 1515.1743 1026.8084 35.0425 16.3541
260.00 1513.2458 1026.9346 34.9493 15.7042
270.00 1511.2989 1027.0639 34.8793 15.0721
280.00 1509.3520 1027.1931 34.8093 14.4399
290.00 1507.4051 1027.3224 34.7393 13.8078
300.00 1505.4609 1027.4515 34.6696 13.1766
310.00 1503.9063 1027.5644 34.6340 12.6880
320.00 1502.3516 1027.6773 34.5985 12.1993
330.00 1500.7969 1027.7902 34.5629 11.7107
340.00 1499.2423 1027.9031 34.5273 11.2221
350.00 1497.6876 1028.0160 34.4918 10.7334
360.00 1496.6247 1028.1089 34.4768 10.3981
370.00 1495.5977 1028.2003 34.4633 10.0740
380.00 1494.5707 1028.2918 34.4498 9.7499
390.00 1493.5438 1028.3832 34.4363 9.4258
400.00 1492.5168 1028.4746 34.4228 9.1017
410.00 1491.4927 1028.5660 34.4094 8.7784
420.00 1490.8813 1028.6402 34.4046 8.5744
430.00 1490.2700 1028.7145 34.3997 8.3704
440.00 1489.6587 1028.7888 34.3949 8.1664
450.00 1489.0473 1028.8631 34.3900 7.9624
460.00 1488.4360 1028.9374 34.3852 7.7584
470.00 1487.8246 1029.0117 34.3804 7.5544
480.00 1487.2772 1029.0832 34.3761 7.3681
490.00 1486.9186 1029.1468 34.3734 7.2342
500.00 1486.5600 1029.2104 34.3708 7.1003
510.00 1486.2014 1029.2740 34.3681 6.9663
520.00 1485.8428 1029.3375 34.3654 6.8324
530.00 1485.4842 1029.4011 34.3628 6.6984
540.00 1485.1255 1029.4647 34.3601 6.5645
550.00 1484.7669 1029.5283 34.3574 6.4306
560.00 1484.5279 1029.5880 34.3564 6.3282
570.00 1484.3333 1029.6464 34.3559 6.2375
580.00 1484.1387 1029.7047 34.3554 6.1468
590.00 1483.9441 1029.7631 34.3549 6.0562
600.00 1483.7495 1029.8214 34.3544 5.9655
610.00 1483.5550 1029.8798 34.3539 5.8748
620.00 1483.3604 1029.9381 34.3534 5.7842
630.00 1483.1658 1029.9965 34.3530 5.6935
640.00 1483.0301 1030.0539 34.3541 5.6176
650.00 1482.9473 1030.1105 34.3566 5.5549
660.00 1482.8646 1030.1671 34.3591 5.4922
670.00 1482.7819 1030.2237 34.3617 5.4295
680.00 1482.6991 1030.2803 34.3642 5.3669
690.00 1482.6164 1030.3369 34.3668 5.3042
700.00 1482.5337 1030.3934 34.3693 5.2415
710.00 1482.4509 1030.4500 34.3719 5.1788
720.00 1482.3682 1030.5066 34.3744 5.1162
730.00 1482.3400 1030.5625 34.3784 5.0668
740.00 1482.3291 1030.6182 34.3829 5.0217
750.00 1482.3182 1030.6738 34.3874 4.9766
760.00 1482.3072 1030.7295 34.3919 4.9314
770.00 1482.2963 1030.7851 34.3963 4.8863
780.00 1482.2854 1030.8408 34.4008 4.8412
790.00 1482.2744 1030.8964 34.4053 4.7960
800.00 1482.2635 1030.9521 34.4098 4.7509
810.00 1482.2526 1031.0078 34.4142 4.7058
820.00 1482.2630 1031.0627 34.4187 4.6660
830.00 1482.2906 1031.1170 34.4232 4.6305
840.00 1482.3183 1031.1714 34.4277 4.5950
850.00 1482.3459 1031.2258 34.4322 4.5595
860.00 1482.3735 1031.2801 34.4367 4.5240
870.00 1482.4012 1031.3345 34.4412 4.4885
880.00 1482.4288 1031.3888 34.4457 4.4531
890.00 1482.4564 1031.4432 34.4502 4.4176
900.00 1482.4841 1031.4975 34.4547 4.3821
910.00 1482.5121 1031.5519 34.4592 4.3467
920.00 1482.5535 1031.6049 34.4627 4.3150
930.00 1482.5949 1031.6579 34.4662 4.2834
940.00 1482.6363 1031.7109 34.4697 4.2517
950.00 1482.6777 1031.7640 34.4732 4.2201
960.00 1482.7191 1031.8170 34.4767 4.1884
970.00 1482.7605 1031.8700 34.4802 4.1568
980.00 1482.8019 1031.9230 34.4837 4.1251
990.00 1482.8433 1031.9761 34.4872 4.0934
1000.00 1482.8847 1032.0291 34.4907 4.0618
1010.00 1482.9283 1032.0818 34.4939 4.0308
1020.00 1482.9778 1032.1338 34.4965 4.0015
1030.00 1483.0273 1032.1858 34.4991 3.9722
1040.00 1483.0767 1032.2378 34.5017 3.9429
1050.00 1483.1262 1032.2897 34.5043 3.9136
1060.00 1483.1756 1032.3417 34.5069 3.8843
1070.00 1483.2251 1032.3937 34.5095 3.8550
1080.00 1483.2745 1032.4457 34.5121 3.8257
1090.00 1483.3240 1032.4977 34.5147 3.7964
1100.00 1483.3734 1032.5496 34.5173 3.7671
1110.00 1483.4267 1032.6013 34.5197 3.7389
1120.00 1483.4856 1032.6525 34.5218 3.7121
1130.00 1483.5445 1032.7038 34.5239 3.6853
1140.00 1483.6034 1032.7550 34.5260 3.6585
1150.00 1483.6623 1032.8062 34.5281 3.6318
1160.00 1483.7212 1032.8574 34.5302 3.6050
1170.00 1483.7801 1032.9087 34.5323 3.5782
1180.00 1483.8390 1032.9599 34.5344 3.5514
1190.00 1483.8979 1033.0111 34.5365 3.5246
1200.00 1483.9568 1033.0623 34.5386 3.4979
1210.00 1484.0190 1033.1133 34.5406 3.4719
1220.00 1484.0853 1033.1640 34.5424 3.4470
1230.00 1484.1516 1033.2148 34.5442 3.4222
1240.00 1484.2178 1033.2655 34.5460 3.3973
1250.00 1484.2841 1033.3162 34.5478 3.3724
1260.00 1484.3504 1033.3669 34.5496 3.3476
1270.00 1484.4166 1033.4177 34.5514 3.3227
1280.00 1484.4829 1033.4684 34.5532 3.2978
1290.00 1484.5491 1033.5191 34.5550 3.2729
1300.00 1484.6154 1033.5698 34.5568 3.2481
1310.00 1484.6834 1033.6204 34.5586 3.2236
1320.00 1484.7543 1033.6708 34.5602 3.2000
1330.00 1484.8251 1033.7212 34.5618 3.1763
1340.00 1484.8960 1033.7715 34.5634 3.1526
1350.00 1484.9668 1033.8219 34.5649 3.1290
1360.00 1485.0377 1033.8723 34.5665 3.1053
1370.00 1485.1086 1033.9226 34.5681 3.0816
1380.00 1485.1794 1033.9730 34.5697 3.0580
1390.00 1485.2503 1034.0234 34.5713 3.0343
1400.00 1485.3211 1034.0738 34.5729 3.0106
1410.00 1485.3924 1034.1241 34.5745 2.9870
1420.00 1485.4674 1034.1742 34.5759 2.9645
1430.00 1485.5425 1034.2242 34.5773 2.9419
1440.00 1485.6176 1034.2743 34.5787 2.9193
1450.00 1485.6926 1034.3243 34.5801 2.8967
1460.00 1485.7677 1034.3744 34.5815 2.8741
1470.00 1485.8428 1034.4244 34.5829 2.8516
1480.00 1485.9178 1034.4745 34.5843 2.8290
1490.00 1485.9929 1034.5245 34.5857 2.8064
1500.00 1486.0680 1034.5746 34.5871 2.7838
1510.00 1486.1430 1034.6246 34.5885 2.7612
1520.00 1486.2202 1034.6746 34.5899 2.7392
1530.00 1486.3024 1034.7243 34.5912 2.7183
1540.00 1486.3846 1034.7740 34.5924 2.6974
1550.00 1486.4668 1034.8237 34.5937 2.6766
1560.00 1486.5490 1034.8733 34.5950 2.6557
1570.00 1486.6312 1034.9230 34.5962 2.6348
1580.00 1486.7134 1034.9727 34.5975 2.6140
1590.00 1486.7956 1035.0224 34.5987 2.5931
1600.00 1486.8778 1035.0721 34.6000 2.5723
1610.00 1486.9600 1035.1218 34.6013 2.5514
1620.00 1487.0422 1035.1715 34.6025 2.5305
1630.00 1487.1244 1035.2211 34.6038 2.5097
1640.00 1487.2144 1035.2705 34.6050 2.4906
1650.00 1487.3101 1035.3197 34.6062 2.4729
1660.00 1487.4058 1035.3689 34.6073 2.4551
1670.00 1487.5015 1035.4181 34.6085 2.4374
1680.00 1487.5973 1035.4672 34.6096 2.4196
1690.00 1487.6930 1035.5164 34.6108 2.4019
1700.00 1487.7887 1035.5656 34.6119 2.3842
1710.00 1487.8844 1035.6148 34.6131 2.3664
1720.00 1487.9801 1035.6639 34.6143 2.3487
1730.00 1488.0758 1035.7131 34.6154 2.3309
1740.00 1488.1715 1035.7623 34.6166 2.3132
1750.00 1488.2672 1035.8114 34.6177 2.2954
1760.00 1488.3629 1035.8606 34.6189 2.2777
1770.00 1488.4673 1035.9095 34.6200 2.2619
1780.00 1488.5809 1035.9579 34.6209 2.2482
1790.00 1488.6945 1036.0064 34.6219 2.2346
1800.00 1488.8081 1036.0549 34.6229 2.2209
1810.00 1488.9217 1036.1034 34.6239 2.2072
1820.00 1489.0353 1036.1518 34.6249 2.1935
1830.00 1489.1490 1036.2003 34.6259 2.1798
1840.00 1489.2626 1036.2488 34.6269 2.1661
1850.00 1489.3762 1036.2973 34.6279 2.1525
1860.00 1489.4898 1036.3458 34.6289 2.1388
1870.00 1489.6034 1036.3942 34.6299 2.1251
1880.00 1489.7170 1036.4427 34.6309 2.1114
1890.00 1489.8306 1036.4912 34.6319 2.0977
1900.00 1489.9442 1036.5397 34.6329 2.0841
1910.00 1490.0578 1036.5882 34.6338 2.0704
1920.00 1490.1817 1036.6362 34.6347 2.0590
1930.00 1490.3129 1036.6840 34.6355 2.0492
1940.00 1490.4441 1036.7317 34.6363 2.0395
1950.00 1490.5753 1036.7795 34.6371 2.0297
1960.00 1490.7065 1036.8273 34.6379 2.0200
1970.00 1490.8377 1036.8750 34.6387 2.0102
1980.00 1490.9689 1036.9228 34.6395 2.0004
1990.00 1491.1001 1036.9705 34.6403 1.9907
2000.00 1491.2313 1037.0183 34.6412 1.9809
2010.00 1491.3625 1037.0661 34.6420 1.9712
2020.00 1491.4937 1037.1138 34.6428 1.9614
2030.00 1491.6249 1037.1616 34.6436 1.9517
2040.00 1491.7561 1037.2094 34.6444 1.9419
2050.00 1491.8873 1037.2571 34.6452 1.9321
2060.00 1492.0185 1037.3049 34.6460 1.9224
2070.00 1492.1497 1037.3526 34.6468 1.9126
2080.00 1492.2809 1037.4004 34.6476 1.9029
2090.00 1492.4205 1037.4478 34.6483 1.8949
2100.00 1492.5657 1037.4949 34.6489 1.8882
2110.00 1492.7110 1037.5421 34.6495 1.8815
2120.00 1492.8562 1037.5892 34.6502 1.8749
2130.00 1493.0015 1037.6363 34.6508 1.8682
2140.00 1493.1468 1037.6835 34.6514 1.8615
2150.00 1493.2920 1037.7306 34.6521 1.8548
2160.00 1493.4373 1037.7778 34.6527 1.8481
2170.00 1493.5826 1037.8249 34.6533 1.8414
2180.00 1493.7278 1037.8720 34.6540 1.8347
2190.00 1493.8731 1037.9192 34.6546 1.8280
2200.00 1494.0183 1037.9663 34.6552 1.8213
2210.00 1494.1636 1038.0134 34.6559 1.8146
2220.00 1494.3089 1038.0606 34.6565 1.8079
2230.00 1494.4541 1038.1077 34.6571 1.8012
2240.00 1494.5994 1038.1549 34.6578 1.7945
2250.00 1494.7447 1038.2020 34.6584 1.7878
2260.00 1494.8899 1038.2491 34.6590 1.7811
2270.00 1495.0352 1038.2963 34.6597 1.7744
2280.00 1495.1843 1038.3432 34.6603 1.7685
2290.00 1495.3397 1038.3898 34.6607 1.7640
2300.00 1495.4951 1038.4364 34.6612 1.7594
2310.00 1495.6505 1038.4831 34.6617 1.7549
2320.00 1495.8059 1038.5297 34.6622 1.7503
2330.00 1495.9613 1038.5763 34.6627 1.7457
2340.00 1496.1167 1038.6229 34.6631 1.7412
2350.00 1496.2722 1038.6695 34.6636 1.7366
2360.00 1496.4276 1038.7161 34.6641 1.7320
2370.00 1496.5830 1038.7627 34.6646 1.7275
2380.00 1496.7384 1038.8094 34.6651 1.7229
2390.00 1496.8938 1038.8560 34.6655 1.7184
2400.00 1497.0492 1038.9026 34.6660 1.7138
2410.00 1497.2046 1038.9492 34.6665 1.7092
2420.00 1497.3600 1038.9958 34.6670 1.7047
2430.00 1497.5155 1039.0424 34.6675 1.7001
2440.00 1497.6709 1039.0890 34.6679 1.6956
2450.00 1497.8263 1039.1357 34.6684 1.6910
2460.00 1497.9817 1039.1823 34.6689 1.6864
2470.00 1498.1371 1039.2289 34.6694 1.6819
2480.00 1498.2925 1039.2755 34.6699 1.6773
2490.00 1498.4479 1039.3221 34.6703 1.6728
2500.00 1498.6102 1039.3683 34.6707 1.6696
2510.00 1498.7735 1039.4144 34.6710 1.6666
2520.00 1498.9368 1039.4605 34.6713 1.6636
2530.00 1499.1001 1039.5067 34.6716 1.6607
2540.00 1499.2634 1039.5528 34.6720 1.6577
2550.00 1499.4267 1039.5989 34.6723 1.6547
2560.00 1499.5899 1039.6450 34.6726 1.6518
2570.00 1499.7532 1039.6912 34.6729 1.6488
2580.00 1499.9165 1039.7373 34.6732 1.6458
2590.00 1500.0798 1039.7834 34.6736 1.6429
2600.00 1500.2431 1039.8295 34.6739 1.6399
2610.00 1500.4064 1039.8757 34.6742 1.6369
2620.00 1500.5697 1039.9218 34.6745 1.6340
2630.00 1500.7329 1039.9679 34.6748 1.6310
2640.00 1500.8962 1040.0140 34.6752 1.6280
2650.00 1501.0595 1040.0602 34.6755 1.6251
2660.00 1501.2228 1040.1063 34.6758 1.6221
2670.00 1501.3861 1040.1524 34.6761 1.6191
2680.00 1501.5494 1040.1985 34.6764 1.6162
2690.00 1501.7126 1040.2447 34.6768 1.6132
2700.00 1501.8759 1040.2908 34.6771 1.6102
2710.00 1502.0392 1040.3369 34.6774 1.6073
2720.00 1502.2025 1040.3830 34.6777 1.6043
2730.00 1502.3663 1040.4291 34.6780 1.6014
2740.00 1502.5365 1040.4747 34.6782 1.5998
2750.00 1502.7066 1040.5204 34.6783 1.5982
2760.00 1502.8768 1040.5660 34.6784 1.5966
2770.00 1503.0470 1040.6116 34.6786 1.5950
2780.00 1503.2171 1040.6572 34.6787 1.5934
2790.00 1503.3873 1040.7028 34.6788 1.5917
2800.00 1503.5574 1040.7484 34.6790 1.5901
2810.00 1503.7276 1040.7940 34.6791 1.5885
2820.00 1503.8978 1040.8397 34.6793 1.5869
2830.00 1504.0679 1040.8853 34.6794 1.5853
2840.00 1504.2381 1040.9309 34.6795 1.5837
2850.00 1504.4083 1040.9765 34.6797 1.5821
2860.00 1504.5784 1041.0221 34.6798 1.5804
2870.00 1504.7486 1041.0677 34.6800 1.5788
2880.00 1504.9187 1041.1134 34.6801 1.5772
2890.00 1505.0889 1041.1590 34.6802 1.5756
2900.00 1505.2591 1041.2046 34.6804 1.5740
2910.00 1505.4292 1041.2502 34.6805 1.5724
2920.00 1505.5994 1041.2958 34.6807 1.5707
2930.00 1505.7695 1041.3414 34.6808 1.5691
2940.00 1505.9397 1041.3871 34.6809 1.5675
2950.00 1506.1099 1041.4327 34.6811 1.5659
2960.00 1506.2800 1041.4783 34.6812 1.5643
2970.00 1506.4502 1041.5239 34.6814 1.5627
2980.00 1506.6204 1041.5695 34.6815 1.5611
2990.00 1506.7905 1041.6151 34.6816 1.5594
3000.00 1506.9656 1041.6603 34.6817 1.5587
3010.00 1507.1407 1041.7055 34.6817 1.5580
3020.00 1507.3159 1041.7507 34.6817 1.5573
3030.00 1507.4911 1041.7959 34.6818 1.5565
3040.00 1507.6662 1041.8411 34.6818 1.5558
3050.00 1507.8414 1041.8863 34.6819 1.5551
3060.00 1508.0166 1041.9315 34.6819 1.5544
3070.00 1508.1918 1041.9767 34.6819 1.5537
3080.00 1508.3669 1042.0219 34.6820 1.5529
3090.00 1508.5421 1042.0671 34.6820 1.5522
3100.00 1508.7173 1042.1123 34.6821 1.5515
3110.00 1508.8924 1042.1575 34.6821 1.5508
3120.00 1509.0676 1042.2027 34.6821 1.5501
3130.00 1509.2428 1042.2480 34.6822 1.5493
3140.00 1509.4180 1042.2932 34.6822 1.5486
3150.00 1509.5931 1042.3384 34.6822 1.5479
3160.00 1509.7683 1042.3836 34.6823 1.5472
3170.00 1509.9435 1042.4288 34.6823 1.5465
3180.00 1510.1186 1042.4740 34.6824 1.5457
3190.00 1510.2938 1042.5192 34.6824 1.5450
3200.00 1510.4690 1042.5644 34.6824 1.5443
3210.00 1510.6441 1042.6096 34.6825 1.5436
3220.00 1510.8193 1042.6548 34.6825 1.5429
3230.00 1510.9945 1042.7000 34.6825 1.5421
3240.00 1511.1697 1042.7452 34.6826 1.5414
3250.00 1511.3448 1042.7904 34.6826 1.5407
3260.00 1511.5200 1042.8356 34.6827 1.5400
3270.00 1511.6952 1042.8808 34.6827 1.5393
3280.00 1511.8711 1042.9258 34.6827 1.5386
3290.00 1512.0476 1042.9708 34.6828 1.5379
3300.00 1512.2241 1043.0157 34.6828 1.5372
3310.00 1512.4006 1043.0607 34.6828 1.5365
3320.00 1512.5771 1043.1057 34.6828 1.5358
3330.00 1512.7536 1043.1506 34.6829 1.5351
3340.00 1512.9301 1043.1956 34.6829 1.5344
3350.00 1513.1065 1043.2406 34.6829 1.5337
3360.00 1513.2830 1043.2855 34.6830 1.5331
3370.00 1513.4595 1043.3305 34.6830 1.5324
3380.00 1513.6360 1043.3755 34.6830 1.5317
3390.00 1513.8125 1043.4204 34.6830 1.5310
3400.00 1513.9890 1043.4654 34.6831 1.5303
3410.00 1514.1655 1043.5104 34.6831 1.5296
3420.00 1514.3420 1043.5553 34.6831 1.5289
3430.00 1514.5185 1043.6003 34.6832 1.5282
3440.00 1514.6950 1043.6453 34.6832 1.5275
3450.00 1514.8715 1043.6902 34.6832 1.5269
3460.00 1515.0480 1043.7352 34.6832 1.5262
3470.00 1515.2245 1043.7802 34.6833 1.5255
3480.00 1515.4009 1043.8251 34.6833 1.5248
3490.00 1515.5774 1043.8701 34.6833 1.5241
3500.00 1515.7539 1043.9150 34.6834 1.5234
3510.00 1515.9304 1043.9600 34.6834 1.5227
3520.00 1516.1069 1044.0050 34.6834 1.5220
3530.00 1516.2834 1044.0499 34.6834 1.5213
3540.00 1516.4599 1044.0949 34.6835 1.5207
3550.00 1516.6364 1044.1399 34.6835 1.5200
3560.00 1516.8129 1044.1848 34.6835 1.5193
3570.00 1516.9894 1044.2298 34.6836 1.5186
3580.00 1517.1659 1044.2748 34.6836 1.5179
3590.00 1517.3437 1044.3195 34.6836 1.5173
3600.00 1517.5216 1044.3642 34.6836 1.5166
3610.00 1517.6996 1044.4089 34.6837 1.5160
3620.00 1517.8776 1044.4536 34.6837 1.5153
3630.00 1518.0556 1044.4984 34.6837 1.5147
3640.00 1518.2335 1044.5431 34.6837 1.5141
3650.00 1518.4115 1044.5878 34.6837 1.5134
3660.00 1518.5895 1044.6325 34.6838 1.5128
3670.00 1518.7675 1044.6772 34.6838 1.5122
3680.00 1518.9454 1044.7219 34.6838 1.5115
3690.00 1519.1234 1044.7666 34.6838 1.5109
3700.00 1519.3014 1044.8113 34.6839 1.5103
3710.00 1519.4793 1044.8561 34.6839 1.5096
3720.00 1519.6573 1044.9008 34.6839 1.5090
3730.00 1519.8353 1044.9455 34.6839 1.5084
3740.00 1520.0133 1044.9902 34.6840 1.5077
3750.00 1520.1912 1045.0349 34.6840 1.5071
3760.00 1520.3692 1045.0796 34.6840 1.5065
3770.00 1520.5472 1045.1243 34.6840 1.5058
3780.00 1520.7252 1045.1690 34.6840 1.5052
3790.00 1520.9031 1045.2138 34.6841 1.5045
3800.00 1521.0811 1045.2585 34.6841 1.5039
3810.00 1521.2591 1045.3032 34.6841 1.5033
3820.00 1521.4371 1045.3479 34.6841 1.5026
3830.00 1521.6150 1045.3926 34.6842 1.5020
3840.00 1521.7930 1045.4373 34.6842 1.5014
3850.00 1521.9710 1045.4820 34.6842 1.5007
3860.00 1522.1489 1045.5267 34.6842 1.5001
3870.00 1522.3269 1045.5714 34.6843 1.4995
3880.00 1522.5049 1045.6162 34.6843 1.4988
3890.00 1522.6829 1045.6609 34.6843 1.4982
3900.00 1522.8608 1045.7056 34.6843 1.4976
3910.00 1523.0388 1045.7503 34.6843 1.4969
3920.00 1523.2204 1045.7947 34.6843 1.4968
3930.00 1523.4024 1045.8390 34.6843 1.4968
3940.00 1523.5845 1045.8833 34.6843 1.4968
3950.00 1523.7665 1045.9276 34.6843 1.4968
3960.00 1523.9486 1045.9720 34.6843 1.4968
3970.00 1524.1306 1046.0163 34.6843 1.4968
3980.00 1524.3127 1046.0606 34.6843 1.4968
3990.00 1524.4947 1046.1049 34.6843 1.4968
4000.00 1524.6768 1046.1493 34.6843 1.4968
4010.00 1524.8589 1046.1936 34.6843 1.4968
4020.00 1525.0409 1046.2379 34.6843 1.4968
4030.00 1525.2230 1046.2822 34.6843 1.4968
4040.00 1525.4050 1046.3266 34.6843 1.4968
4050.00 1525.5871 1046.3709 34.6843 1.4968
4060.00 1525.7691 1046.4152 34.6843 1.4968
4070.00 1525.9512 1046.4595 34.6843 1.4968
4080.00 1526.1332 1046.5039 34.6843 1.4968
4090.00 1526.3153 1046.5482 34.6843 1.4968
4100.00 1526.4974 1046.5925 34.6843 1.4968
4110.00 1526.6794 1046.6368 34.6843 1.4968
4120.00 1526.8615 1046.6812 34.6843 1.4968
4130.00 1527.0435 1046.7255 34.6843 1.4968
4140.00 1527.2256 1046.7698 34.6843 1.4968
4150.00 1527.4076 1046.8141 34.6843 1.4968
4160.00 1527.5897 1046.8585 34.6843 1.4968
4170.00 1527.7717 1046.9028 34.6843 1.4968
4180.00 1527.9538 1046.9471 34.6843 1.4968
4190.00 1528.1358 1046.9914 34.6843 1.4968
4200.00 1528.3179 1047.0358 34.6843 1.4968
4210.00 1528.5000 1047.0801 34.6843 1.4968
4220.00 1528.6820 1047.1244 34.6843 1.4968
4230.00 1528.8641 1047.1687 34.6843 1.4968
4240.00 1529.0461 1047.2131 34.6843 1.4968
4250.00 1529.2282 1047.2574 34.6843 1.4968
4260.00 1529.4102 1047.3017 34.6843 1.4968
4270.00 nan nan nan nan
4280.00 nan nan nan nan
4290.00 nan nan nan nan
4300.00 nan nan nan nan
4310.00 nan nan nan nan
4320.00 nan nan nan nan
4330.00 nan nan nan nan
4340.00 nan nan nan nan
4350.00 nan nan nan nan
4360.00 nan nan nan nan
4370.00 nan nan nan nan
4380.00 nan nan nan nan
4390.00 nan nan nan nan
4400.00 nan nan nan nan
4410.00 nan nan nan nan
4420.00 nan nan nan nan
4430.00 nan nan nan nan
4440.00 nan nan nan nan
4450.00 nan nan nan nan
4460.00 nan nan nan nan
4470.00 nan nan nan nan
4480.00 nan nan nan nan
4490.00 nan nan nan nan
4500.00 nan nan nan nan
4510.00 nan nan nan nan
4520.00 nan nan nan nan
4530.00 nan nan nan nan
4540.00 nan nan nan nan
4550.00 nan nan nan nan
4560.00 nan nan nan nan
4570.00 nan nan nan nan
4580.00 nan nan nan nan
4590.00 nan nan nan nan
4600.00 nan nan nan nan
4610.00 nan nan nan nan
4620.00 nan nan nan nan
4630.00 nan nan nan nan
4640.00 nan nan nan nan
4650.00 nan nan nan nan
4660.00 nan nan nan nan
4670.00 nan nan nan nan
4680.00 nan nan nan nan
4690.00 nan nan nan nan
4700.00 nan nan nan nan
4710.00 nan nan nan nan
4720.00 nan nan nan nan
4730.00 nan nan nan nan
4740.00 nan nan nan nan
4750.00 nan nan nan nan
4760.00 nan nan nan nan
4770.00 nan nan nan nan
4780.00 nan nan nan nan
4790.00 nan nan nan nan
4800.00 nan nan nan nan
4810.00 nan nan nan nan
4820.00 nan nan nan nan
4830.00 nan nan nan nan
4840.00 nan nan nan nan
4850.00 nan nan nan nan
4860.00 nan nan nan nan
4870.00 nan nan nan nan
4880.00 nan nan nan nan
4890.00 nan nan nan nan
4900.00 nan nan nan nan
4910.00 nan nan nan nan
4920.00 nan nan nan nan
4930.00 nan nan nan nan
4940.00 nan nan nan nan
4950.00 nan nan nan nan
4960.00 nan nan nan nan
4970.00 nan nan nan nan
4980.00 nan nan nan nan
4990.00 nan nan nan nan
5000.00 nan nan nan nan
5010.00 nan nan nan nan
5020.00 nan nan nan nan
5030.00 nan nan nan nan
5040.00 nan nan nan nan
5050.00 nan nan nan nan
5060.00 nan nan nan nan
5070.00 nan nan nan nan
5080.00 nan nan nan nan
5090.00 nan nan nan nan
5100.00 nan nan nan nan
5110.00 nan nan nan nan
5120.00 nan nan nan nan
5130.00 nan nan nan nan
5140.00 nan nan nan nan
5150.00 nan nan nan nan
5160.00 nan nan nan nan
5170.00 nan nan nan nan
5180.00 nan nan nan nan
5190.00 nan nan nan nan
5200.00 nan nan nan nan
5210.00 nan nan nan nan
5220.00 nan nan nan nan
5230.00 nan nan nan nan
5240.00 nan nan nan nan
5250.00 nan nan nan nan
5260.00 nan nan nan nan
5270.00 nan nan nan nan
5280.00 nan nan nan nan
5290.00 nan nan nan nan
5300.00 nan nan nan nan
5310.00 nan nan nan nan
5320.00 nan nan nan nan
5330.00 nan nan nan nan
5340.00 nan nan nan nan
5350.00 nan nan nan nan
5360.00 nan nan nan nan
5370.00 nan nan nan nan
5380.00 nan nan nan nan
5390.00 nan nan nan nan
5400.00 nan nan nan nan
5410.00 nan nan nan nan
5420.00 nan nan nan nan
5430.00 nan nan nan nan
5440.00 nan nan nan nan
5450.00 nan nan nan nan
5460.00 nan nan nan nan
5470.00 nan nan nan nan
5480.00 nan nan nan nan
5490.00 nan nan nan nan
5500.00 nan nan nan nan
5510.00 nan nan nan nan
5520.00 nan nan nan nan
5530.00 nan nan nan nan
5540.00 nan nan nan nan
5550.00 nan nan nan nan
5560.00 nan nan nan nan
5570.00 nan nan nan nan
5580.00 nan nan nan nan
5590.00 nan nan nan nan
5600.00 nan nan nan nan
5610.00 nan nan nan nan
5620.00 nan nan nan nan
5630.00 nan nan nan nan
5640.00 nan nan nan nan
5650.00 nan nan nan nan
5660.00 nan nan nan nan
5670.00 nan nan nan nan
5680.00 nan nan nan nan
5690.00 nan nan nan nan
5700.00 nan nan nan nan
5710.00 nan nan nan nan
5720.00 nan nan nan nan
5730.00 nan nan nan nan
5740.00 nan nan nan nan
5750.00 nan nan nan nan
5760.00 nan nan nan nan
5770.00 nan nan nan nan
5780.00 nan nan nan nan
5790.00 nan nan nan nan
5800.00 nan nan nan nan
5810.00 nan nan nan nan
5820.00 nan nan nan nan
5830.00 nan nan nan nan
5840.00 nan nan nan nan
5850.00 nan nan nan nan
5860.00 nan nan nan nan
5870.00 nan nan nan nan
5880.00 nan nan nan nan
5890.00 nan nan nan nan
5900.00 nan nan nan nan
5910.00 nan nan nan nan
5920.00 nan nan nan nan
5930.00 nan nan nan nan
5940.00 nan nan nan nan
5950.00 nan nan nan nan
5960.00 nan nan nan nan
5970.00 nan nan nan nan
5980.00 nan nan nan nan
5990.00 nan nan nan nan
6000.00 nan nan nan nan
6010.00 nan nan nan nan
6020.00 nan nan nan nan
6030.00 nan nan nan nan
6040.00 nan nan nan nan
6050.00 nan nan nan nan
6060.00 nan nan nan nan
6070.00 nan nan nan nan
6080.00 nan nan nan nan
6090.00 nan nan nan nan
6100.00 nan nan nan nan
6110.00 nan nan nan nan
6120.00 nan nan nan nan
6130.00 nan nan nan nan
6140.00 nan nan nan nan
6150.00 nan nan nan nan
6160.00 nan nan nan nan
6170.00 nan nan nan nan
6180.00 nan nan nan nan
6190.00 nan nan nan nan
6200.00 nan nan nan nan
6210.00 nan nan nan nan
6220.00 nan nan nan nan
6230.00 nan nan nan nan
6240.00 nan nan nan nan
6250.00 nan nan nan nan
6260.00 nan nan nan nan
6270.00 nan nan nan nan
6280.00 nan nan nan nan
6290.00 nan nan nan nan
6300.00 nan nan nan nan
6310.00 nan nan nan nan
6320.00 nan nan nan nan
6330.00 nan nan nan nan
6340.00 nan nan nan nan
6350.00 nan nan nan nan
6360.00 nan nan nan nan
6370.00 nan nan nan nan
6380.00 nan nan nan nan
6390.00 nan nan nan nan
6400.00 nan nan nan nan
6410.00 nan nan nan nan
6420.00 nan nan nan nan
6430.00 nan nan nan nan
6440.00 nan nan nan nan
6450.00 nan nan nan nan
6460.00 nan nan nan nan
6470.00 nan nan nan nan
6480.00 nan nan nan nan
6490.00 nan nan nan nan
6500.00 nan nan nan nan
6510.00 nan nan nan nan
6520.00 nan nan nan nan
6530.00 nan nan nan nan
6540.00 nan nan nan nan
6550.00 nan nan nan nan
6560.00 nan nan nan nan
6570.00 nan nan nan nan
6580.00 nan nan nan nan
6590.00 nan nan nan nan
6600.00 nan nan nan nan
6610.00 nan nan nan nan
6620.00 nan nan nan nan
6630.00 nan nan nan nan
6640.00 nan nan nan nan
6650.00 nan nan nan nan
6660.00 nan nan nan nan
6670.00 nan nan nan nan
6680.00 nan nan nan nan
6690.00 nan nan nan nan
6700.00 nan nan nan nan
6710.00 nan nan nan nan
6720.00 nan nan nan nan
6730.00 nan nan nan nan
6740.00 nan nan nan nan
6750.00 nan nan nan nan
6760.00 nan nan nan nan
6770.00 nan nan nan nan
6780.00 nan nan nan nan
6790.00 nan nan nan nan
6800.00 nan nan nan nan
6810.00 nan nan nan nan
6820.00 nan nan nan nan
6830.00 nan nan nan nan
6840.00 nan nan nan nan
6850.00 nan nan nan nan
6860.00 nan nan nan nan
6870.00 nan nan nan nan
6880.00 nan nan nan nan
6890.00 nan nan nan nan
6900.00 nan nan nan nan
6910.00 nan nan nan nan
6920.00 nan nan nan nan
6930.00 nan nan nan nan
6940.00 nan nan nan nan
6950.00 nan nan nan nan
6960.00 nan nan nan nan
6970.00 nan nan nan nan
6980.00 nan nan nan nan
6990.00 nan nan nan nan
7000.00 nan nan nan nan
7010.00 nan nan nan nan
7020.00 nan nan nan nan
7030.00 nan nan nan nan
7040.00 nan nan nan nan
7050.00 nan nan nan nan
7060.00 nan nan nan nan
7070.00 nan nan nan nan
7080.00 nan nan nan nan
7090.00 nan nan nan nan
7100.00 nan nan nan nan
7110.00 nan nan nan nan
7120.00 nan nan nan nan
7130.00 nan nan nan nan
7140.00 nan nan nan nan
7150.00 nan nan nan nan
7160.00 nan nan nan nan
7170.00 nan nan nan nan
7180.00 nan nan nan nan
7190.00 nan nan nan nan
7200.00 nan nan nan nan
7210.00 nan nan nan nan
7220.00 nan nan nan nan
7230.00 nan nan nan nan
7240.00 nan nan nan nan
7250.00 nan nan nan nan
7260.00 nan nan nan nan
7270.00 nan nan nan nan
7280.00 nan nan nan nan
7290.00 nan nan nan nan
7300.00 nan nan nan nan
7310.00 nan nan nan nan
7320.00 nan nan nan nan
7330.00 nan nan nan nan
7340.00 nan nan nan nan
7350.00 nan nan nan nan
7360.00 nan nan nan nan
7370.00 nan nan nan nan
7380.00 nan nan nan nan
7390.00 nan nan nan nan
7400.00 nan nan nan nan
7410.00 nan nan nan nan
7420.00 nan nan nan nan
7430.00 nan nan nan nan
7440.00 nan nan nan nan
7450.00 nan nan nan nan
7460.00 nan nan nan nan
7470.00 nan nan nan nan
7480.00 nan nan nan nan
7490.00 nan nan nan nan
7500.00 nan nan nan nan
7510.00 nan nan nan nan
7520.00 nan nan nan nan
7530.00 nan nan nan nan
7540.00 nan nan nan nan
7550.00 nan nan nan nan
7560.00 nan nan nan nan
7570.00 nan nan nan nan
7580.00 nan nan nan nan
7590.00 nan nan nan nan
7600.00 nan nan nan nan
7610.00 nan nan nan nan
7620.00 nan nan nan nan
7630.00 nan nan nan nan
7640.00 nan nan nan nan
7650.00 nan nan nan nan
7660.00 nan nan nan nan
7670.00 nan nan nan nan
7680.00 nan nan nan nan
7690.00 nan nan nan nan
7700.00 nan nan nan nan
7710.00 nan nan nan nan
7720.00 nan nan nan nan
7730.00 nan nan nan nan
7740.00 nan nan nan nan
7750.00 nan nan nan nan
7760.00 nan nan nan nan
7770.00 nan nan nan nan
7780.00 nan nan nan nan
7790.00 nan nan nan nan
7800.00 nan nan nan nan
7810.00 nan nan nan nan
7820.00 nan nan nan nan
7830.00 nan nan nan nan
7840.00 nan nan nan nan
7850.00 nan nan nan nan
7860.00 nan nan nan nan
7870.00 nan nan nan nan
7880.00 nan nan nan nan
7890.00 nan nan nan nan
7900.00 nan nan nan nan
7910.00 nan nan nan nan
7920.00 nan nan nan nan
7930.00 nan nan nan nan
7940.00 nan nan nan nan
7950.00 nan nan nan nan
7960.00 nan nan nan nan
7970.00 nan nan nan nan
7980.00 nan nan nan nan
7990.00 nan nan nan nan
