# Averages over distance (i) for each depth (k):
# Depth(m) Speed(m/s) Density(kg/m^3) Salt PSU Theta(degC)
0.00 1542.3345 1023.0033 35.8399 28.0725
10.00 1542.4762 1023.0519 35.8412 28.0586
20.00 1542.6117 1023.1034 35.8445 28.0407
30.00 1542.7050 1023.1679 35.8552 27.9995
40.00 1542.6996 1023.2591 35.8786 27.9066
50.00 1542.5634 1023.3823 35.9157 27.7471
60.00 1542.3141 1023.5331 35.9651 27.5305
70.00 1541.9782 1023.7073 36.0269 27.2699
80.00 1541.5357 1023.9054 36.0993 26.9584
90.00 1540.9307 1024.1310 36.1785 26.5745
100.00 1540.1116 1024.3815 36.2553 26.1030
110.00 1539.0984 1024.6376 36.3136 25.5640
120.00 1538.0125 1024.8706 36.3410 25.0175
130.00 1536.9778 1025.0658 36.3387 24.5151
140.00 1536.0363 1025.2272 36.3159 24.0676
150.00 1535.1545 1025.3599 36.2738 23.6612
160.00 1534.2065 1025.4866 36.2194 23.2390
170.00 1533.2050 1025.6086 36.1550 22.8040
180.00 1531.9209 1025.7365 36.0687 22.2801
190.00 1530.5476 1025.8664 35.9755 21.7282
200.00 1528.8833 1026.0072 35.8703 21.0884
210.00 1526.9572 1026.1577 35.7544 20.3696
220.00 1525.0312 1026.3083 35.6385 19.6507
230.00 1522.8279 1026.4665 35.5265 18.8703
240.00 1520.5216 1026.6276 35.4159 18.0669
250.00 1518.2153 1026.7887 35.3053 17.2635
260.00 1515.9345 1026.9461 35.2029 16.4808
270.00 1513.7287 1027.0927 35.1245 15.7592
280.00 1511.5230 1027.2393 35.0460 15.0376
290.00 1509.3173 1027.3859 34.9676 14.3161
300.00 1507.1154 1027.5323 34.8894 13.5959
310.00 1505.4488 1027.6497 34.8482 13.0718
320.00 1503.7821 1027.7671 34.8071 12.5478
330.00 1502.1155 1027.8844 34.7659 12.0237
340.00 1500.4489 1028.0018 34.7248 11.4996
350.00 1498.7822 1028.1192 34.6836 10.9756
360.00 1497.7869 1028.2094 34.6673 10.6565
370.00 1496.8406 1028.2976 34.6528 10.3523
380.00 1495.8944 1028.3858 34.6384 10.0482
390.00 1494.9481 1028.4740 34.6239 9.7440
400.00 1494.0018 1028.5623 34.6094 9.4399
410.00 1493.0590 1028.6503 34.5950 9.1367
420.00 1492.6146 1028.7196 34.5911 8.9743
430.00 1492.1701 1028.7888 34.5872 8.8118
440.00 1491.7257 1028.8580 34.5833 8.6494
450.00 1491.2813 1028.9272 34.5795 8.4870
460.00 1490.8368 1028.9964 34.5756 8.3245
470.00 1490.3924 1029.0657 34.5717 8.1621
480.00 1489.9919 1029.1329 34.5681 8.0120
490.00 1489.7212 1029.1941 34.5653 7.8985
500.00 1489.4504 1029.2553 34.5626 7.7849
510.00 1489.1797 1029.3166 34.5598 7.6714
520.00 1488.9090 1029.3778 34.5571 7.5579
530.00 1488.6382 1029.4390 34.5543 7.4443
540.00 1488.3675 1029.5003 34.5516 7.3308
550.00 1488.0967 1029.5615 34.5488 7.2173
560.00 1487.8792 1029.6203 34.5464 7.1189
570.00 1487.6815 1029.6781 34.5441 7.0262
580.00 1487.4838 1029.7359 34.5418 6.9334
590.00 1487.2860 1029.7938 34.5395 6.8407
600.00 1487.0883 1029.8516 34.5372 6.7480
610.00 1486.8906 1029.9095 34.5349 6.6552
620.00 1486.6928 1029.9673 34.5326 6.5625
630.00 1486.4951 1030.0251 34.5303 6.4698
640.00 1486.3326 1030.0818 34.5286 6.3866
650.00 1486.2018 1030.1375 34.5273 6.3119
660.00 1486.0710 1030.1931 34.5261 6.2372
670.00 1485.9401 1030.2488 34.5249 6.1626
680.00 1485.8093 1030.3044 34.5236 6.0879
690.00 1485.6785 1030.3601 34.5224 6.0132
700.00 1485.5476 1030.4158 34.5212 5.9386
710.00 1485.4168 1030.4714 34.5199 5.8639
720.00 1485.2860 1030.5271 34.5187 5.7892
730.00 1485.1966 1030.5816 34.5182 5.7254
740.00 1485.1202 1030.6359 34.5180 5.6649
750.00 1485.0438 1030.6901 34.5178 5.6045
760.00 1484.9675 1030.7443 34.5176 5.5441
770.00 1484.8911 1030.7985 34.5174 5.4836
780.00 1484.8148 1030.8528 34.5172 5.4232
790.00 1484.7384 1030.9070 34.5170 5.3627
800.00 1484.6620 1030.9612 34.5168 5.3023
810.00 1484.5857 1031.0154 34.5165 5.2418
820.00 1484.5311 1031.0691 34.5167 5.1870
830.00 1484.4943 1031.1224 34.5173 5.1367
840.00 1484.4574 1031.1757 34.5178 5.0864
850.00 1484.4205 1031.2289 34.5183 5.0361
860.00 1484.3837 1031.2822 34.5188 4.9858
870.00 1484.3468 1031.3355 34.5193 4.9355
880.00 1484.3099 1031.3887 34.5199 4.8851
890.00 1484.2731 1031.4420 34.5204 4.8348
900.00 1484.2362 1031.4953 34.5209 4.7845
910.00 1484.2000 1031.5485 34.5214 4.7344
920.00 1484.1903 1031.6011 34.5224 4.6910
930.00 1484.1805 1031.6537 34.5233 4.6476
940.00 1484.1708 1031.7063 34.5243 4.6042
950.00 1484.1610 1031.7588 34.5252 4.5608
960.00 1484.1512 1031.8114 34.5261 4.5174
970.00 1484.1415 1031.8640 34.5271 4.4740
980.00 1484.1317 1031.9166 34.5280 4.4306
990.00 1484.1219 1031.9691 34.5290 4.3872
1000.00 1484.1122 1032.0217 34.5299 4.3438
1010.00 1484.1079 1032.0741 34.5309 4.3018
1020.00 1484.1176 1032.1261 34.5320 4.2633
1030.00 1484.1273 1032.1781 34.5332 4.2249
1040.00 1484.1370 1032.2301 34.5343 4.1865
1050.00 1484.1466 1032.2822 34.5354 4.1480
1060.00 1484.1563 1032.3342 34.5366 4.1096
1070.00 1484.1660 1032.3862 34.5377 4.0711
1080.00 1484.1757 1032.4382 34.5388 4.0327
1090.00 1484.1853 1032.4902 34.5400 3.9942
1100.00 1484.1950 1032.5422 34.5411 3.9558
1110.00 1484.2116 1032.5940 34.5423 3.9190
1120.00 1484.2382 1032.6454 34.5435 3.8848
1130.00 1484.2648 1032.6969 34.5447 3.8506
1140.00 1484.2914 1032.7484 34.5459 3.8164
1150.00 1484.3180 1032.7999 34.5471 3.7822
1160.00 1484.3445 1032.8513 34.5483 3.7480
1170.00 1484.3711 1032.9028 34.5496 3.7138
1180.00 1484.3977 1032.9543 34.5508 3.6796
1190.00 1484.4243 1033.0057 34.5520 3.6454
1200.00 1484.4509 1033.0572 34.5532 3.6112
1210.00 1484.4844 1033.1085 34.5544 3.5787
1220.00 1484.5265 1033.1594 34.5557 3.5483
1230.00 1484.5686 1033.2104 34.5569 3.5180
1240.00 1484.6107 1033.2613 34.5581 3.4876
1250.00 1484.6528 1033.3123 34.5594 3.4572
1260.00 1484.6949 1033.3632 34.5606 3.4268
1270.00 1484.7370 1033.4142 34.5618 3.3965
1280.00 1484.7790 1033.4651 34.5631 3.3661
1290.00 1484.8211 1033.5161 34.5643 3.3357
1300.00 1484.8632 1033.5671 34.5656 3.3053
1310.00 1484.9109 1033.6178 34.5668 3.2763
1320.00 1484.9678 1033.6683 34.5680 3.2495
1330.00 1485.0246 1033.7188 34.5692 3.2227
1340.00 1485.0814 1033.7692 34.5705 3.1959
1350.00 1485.1383 1033.8197 34.5717 3.1691
1360.00 1485.1951 1033.8702 34.5729 3.1423
1370.00 1485.2520 1033.9206 34.5742 3.1154
1380.00 1485.3088 1033.9711 34.5754 3.0886
1390.00 1485.3657 1034.0216 34.5766 3.0618
1400.00 1485.4225 1034.0720 34.5779 3.0350
1410.00 1485.4806 1034.1224 34.5791 3.0085
1420.00 1485.5523 1034.1724 34.5803 2.9852
1430.00 1485.6240 1034.2224 34.5815 2.9619
1440.00 1485.6957 1034.2724 34.5827 2.9386
1450.00 1485.7674 1034.3223 34.5839 2.9153
1460.00 1485.8390 1034.3723 34.5851 2.8920
1470.00 1485.9107 1034.4223 34.5863 2.8688
1480.00 1485.9824 1034.4722 34.5875 2.8455
1490.00 1486.0541 1034.5222 34.5887 2.8222
1500.00 1486.1258 1034.5722 34.5899 2.7989
1510.00 1486.1975 1034.6222 34.5911 2.7756
1520.00 1486.2738 1034.6720 34.5923 2.7534
1530.00 1486.3616 1034.7214 34.5935 2.7338
1540.00 1486.4494 1034.7708 34.5946 2.7143
1550.00 1486.5372 1034.8202 34.5958 2.6948
1560.00 1486.6250 1034.8696 34.5969 2.6752
1570.00 1486.7129 1034.9190 34.5981 2.6557
1580.00 1486.8007 1034.9684 34.5992 2.6362
1590.00 1486.8885 1035.0178 34.6004 2.6166
1600.00 1486.9763 1035.0672 34.6015 2.5971
1610.00 1487.0641 1035.1166 34.6026 2.5776
1620.00 1487.1519 1035.1660 34.6038 2.5580
1630.00 1487.2397 1035.2154 34.6049 2.5385
1640.00 1487.3370 1035.2645 34.6060 2.5211
1650.00 1487.4411 1035.3133 34.6071 2.5053
1660.00 1487.5452 1035.3621 34.6081 2.4895
1670.00 1487.6494 1035.4109 34.6091 2.4738
1680.00 1487.7535 1035.4597 34.6102 2.4580
1690.00 1487.8576 1035.5085 34.6112 2.4422
1700.00 1487.9617 1035.5573 34.6123 2.4264
1710.00 1488.0659 1035.6061 34.6133 2.4106
1720.00 1488.1700 1035.6549 34.6143 2.3948
1730.00 1488.2741 1035.7038 34.6154 2.3790
1740.00 1488.3782 1035.7526 34.6164 2.3632
1750.00 1488.4824 1035.8014 34.6175 2.3474
1760.00 1488.5865 1035.8502 34.6185 2.3316
1770.00 1488.6978 1035.8987 34.6195 2.3174
1780.00 1488.8166 1035.9469 34.6204 2.3049
1790.00 1488.9354 1035.9952 34.6213 2.2925
1800.00 1489.0542 1036.0434 34.6222 2.2800
1810.00 1489.1730 1036.0916 34.6230 2.2675
1820.00 1489.2918 1036.1398 34.6239 2.2550
1830.00 1489.4106 1036.1881 34.6248 2.2425
1840.00 1489.5294 1036.2363 34.6257 2.2301
1850.00 1489.6482 1036.2845 34.6266 2.2176
1860.00 1489.7671 1036.3327 34.6275 2.2051
1870.00 1489.8859 1036.3810 34.6284 2.1926
1880.00 1490.0047 1036.4292 34.6293 2.1801
1890.00 1490.1235 1036.4774 34.6302 2.1677
1900.00 1490.2423 1036.5256 34.6311 2.1552
1910.00 1490.3611 1036.5738 34.6320 2.1427
1920.00 1490.4871 1036.6218 34.6328 2.1318
1930.00 1490.6183 1036.6694 34.6335 2.1221
1940.00 1490.7494 1036.7171 34.6343 2.1123
1950.00 1490.8806 1036.7648 34.6350 2.1026
1960.00 1491.0117 1036.8124 34.6357 2.0929
1970.00 1491.1429 1036.8601 34.6364 2.0831
1980.00 1491.2740 1036.9078 34.6372 2.0734
1990.00 1491.4052 1036.9555 34.6379 2.0636
2000.00 1491.5363 1037.0031 34.6386 2.0539
2010.00 1491.6675 1037.0508 34.6393 2.0441
2020.00 1491.7986 1037.0985 34.6401 2.0344
2030.00 1491.9298 1037.1462 34.6408 2.0246
2040.00 1492.0610 1037.1938 34.6415 2.0149
2050.00 1492.1921 1037.2415 34.6423 2.0051
2060.00 1492.3233 1037.2892 34.6430 1.9954
2070.00 1492.4544 1037.3369 34.6437 1.9857
2080.00 1492.5856 1037.3845 34.6444 1.9759
2090.00 1492.7224 1037.4319 34.6451 1.9674
2100.00 1492.8631 1037.4791 34.6456 1.9597
2110.00 1493.0038 1037.5263 34.6462 1.9520
2120.00 1493.1446 1037.5735 34.6468 1.9443
2130.00 1493.2853 1037.6207 34.6473 1.9366
2140.00 1493.4260 1037.6679 34.6479 1.9290
2150.00 1493.5667 1037.7151 34.6484 1.9213
2160.00 1493.7074 1037.7622 34.6490 1.9136
2170.00 1493.8481 1037.8094 34.6496 1.9059
2180.00 1493.9888 1037.8566 34.6501 1.8982
2190.00 1494.1295 1037.9038 34.6507 1.8905
2200.00 1494.2703 1037.9510 34.6513 1.8828
2210.00 1494.4110 1037.9982 34.6518 1.8751
2220.00 1494.5517 1038.0454 34.6524 1.8675
2230.00 1494.6924 1038.0926 34.6530 1.8598
2240.00 1494.8331 1038.1398 34.6535 1.8521
2250.00 1494.9738 1038.1870 34.6541 1.8444
2260.00 1495.1145 1038.2341 34.6546 1.8367
2270.00 1495.2553 1038.2813 34.6552 1.8290
2280.00 1495.3986 1038.3284 34.6557 1.8219
2290.00 1495.5463 1038.3751 34.6561 1.8156
2300.00 1495.6940 1038.4219 34.6566 1.8094
2310.00 1495.8418 1038.4687 34.6570 1.8031
2320.00 1495.9895 1038.5155 34.6574 1.7969
2330.00 1496.1372 1038.5623 34.6578 1.7906
2340.00 1496.2849 1038.6090 34.6583 1.7844
2350.00 1496.4326 1038.6558 34.6587 1.7781
2360.00 1496.5803 1038.7026 34.6591 1.7719
2370.00 1496.7280 1038.7494 34.6595 1.7656
2380.00 1496.8758 1038.7962 34.6600 1.7594
2390.00 1497.0235 1038.8429 34.6604 1.7531
2400.00 1497.1712 1038.8897 34.6608 1.7469
2410.00 1497.3189 1038.9365 34.6612 1.7406
2420.00 1497.4666 1038.9833 34.6617 1.7344
2430.00 1497.6143 1039.0301 34.6621 1.7281
2440.00 1497.7620 1039.0768 34.6625 1.7219
2450.00 1497.9098 1039.1236 34.6629 1.7156
2460.00 1498.0575 1039.1704 34.6634 1.7094
2470.00 1498.2052 1039.2172 34.6638 1.7031
2480.00 1498.3529 1039.2640 34.6642 1.6969
2490.00 1498.5006 1039.3107 34.6646 1.6906
2500.00 1498.6529 1039.3572 34.6650 1.6852
2510.00 1498.8059 1039.4036 34.6653 1.6800
2520.00 1498.9588 1039.4501 34.6656 1.6747
2530.00 1499.1117 1039.4965 34.6659 1.6695
2540.00 1499.2647 1039.5429 34.6662 1.6642
2550.00 1499.4176 1039.5894 34.6665 1.6590
2560.00 1499.5706 1039.6358 34.6669 1.6537
2570.00 1499.7235 1039.6822 34.6672 1.6485
2580.00 1499.8765 1039.7286 34.6675 1.6432
2590.00 1500.0294 1039.7751 34.6678 1.6380
2600.00 1500.1823 1039.8215 34.6681 1.6327
2610.00 1500.3353 1039.8679 34.6684 1.6274
2620.00 1500.4882 1039.9144 34.6688 1.6222
2630.00 1500.6412 1039.9608 34.6691 1.6169
2640.00 1500.7941 1040.0072 34.6694 1.6117
2650.00 1500.9471 1040.0537 34.6697 1.6064
2660.00 1501.1000 1040.1001 34.6700 1.6012
2670.00 1501.2529 1040.1465 34.6703 1.5959
2680.00 1501.4059 1040.1929 34.6707 1.5907
2690.00 1501.5588 1040.2394 34.6710 1.5854
2700.00 1501.7118 1040.2858 34.6713 1.5802
2710.00 1501.8647 1040.3322 34.6716 1.5749
2720.00 1502.0177 1040.3787 34.6719 1.5697
2730.00 1502.1709 1040.4251 34.6722 1.5645
2740.00 1502.3282 1040.4712 34.6725 1.5600
2750.00 1502.4855 1040.5173 34.6727 1.5555
2760.00 1502.6428 1040.5634 34.6729 1.5510
2770.00 1502.8001 1040.6095 34.6732 1.5465
2780.00 1502.9574 1040.6556 34.6734 1.5420
2790.00 1503.1147 1040.7017 34.6737 1.5375
2800.00 1503.2720 1040.7478 34.6739 1.5330
2810.00 1503.4293 1040.7940 34.6741 1.5285
2820.00 1503.5866 1040.8401 34.6744 1.5241
2830.00 1503.7439 1040.8862 34.6746 1.5196
2840.00 1503.9012 1040.9323 34.6749 1.5151
2850.00 1504.0585 1040.9784 34.6751 1.5106
2860.00 1504.2157 1041.0245 34.6753 1.5061
2870.00 1504.3730 1041.0706 34.6756 1.5016
2880.00 1504.5303 1041.1167 34.6758 1.4971
2890.00 1504.6876 1041.1629 34.6761 1.4926
2900.00 1504.8449 1041.2090 34.6763 1.4881
2910.00 1505.0022 1041.2551 34.6765 1.4837
2920.00 1505.1595 1041.3012 34.6768 1.4792
2930.00 1505.3168 1041.3473 34.6770 1.4747
2940.00 1505.4741 1041.3934 34.6773 1.4702
2950.00 1505.6314 1041.4395 34.6775 1.4657
2960.00 1505.7887 1041.4856 34.6777 1.4612
2970.00 1505.9460 1041.5318 34.6780 1.4567
2980.00 1506.1033 1041.5779 34.6782 1.4522
2990.00 1506.2606 1041.6240 34.6785 1.4477
3000.00 1506.4217 1041.6698 34.6786 1.4439
3010.00 1506.5829 1041.7156 34.6788 1.4400
3020.00 1506.7441 1041.7614 34.6790 1.4362
3030.00 1506.9052 1041.8072 34.6792 1.4323
3040.00 1507.0664 1041.8531 34.6794 1.4284
3050.00 1507.2276 1041.8989 34.6796 1.4246
3060.00 1507.3888 1041.9447 34.6798 1.4207
3070.00 1507.5500 1041.9905 34.6800 1.4169
3080.00 1507.7112 1042.0363 34.6802 1.4130
3090.00 1507.8724 1042.0821 34.6803 1.4092
3100.00 1508.0336 1042.1279 34.6805 1.4053
3110.00 1508.1948 1042.1737 34.6807 1.4014
3120.00 1508.3560 1042.2196 34.6809 1.3976
3130.00 1508.5172 1042.2654 34.6811 1.3937
3140.00 1508.6784 1042.3112 34.6813 1.3899
3150.00 1508.8396 1042.3570 34.6815 1.3860
3160.00 1509.0008 1042.4028 34.6817 1.3822
3170.00 1509.1620 1042.4486 34.6819 1.3783
3180.00 1509.3232 1042.4944 34.6820 1.3744
3190.00 1509.4844 1042.5403 34.6822 1.3706
3200.00 1509.6456 1042.5861 34.6824 1.3667
3210.00 1509.8068 1042.6319 34.6826 1.3629
3220.00 1509.9680 1042.6777 34.6828 1.3590
3230.00 1510.1292 1042.7235 34.6830 1.3552
3240.00 1510.2904 1042.7693 34.6832 1.3513
3250.00 1510.4516 1042.8151 34.6834 1.3474
3260.00 1510.6128 1042.8609 34.6836 1.3436
3270.00 1510.7740 1042.9068 34.6837 1.3397
3280.00 1510.9364 1042.9524 34.6839 1.3360
3290.00 1511.0996 1042.9980 34.6841 1.3323
3300.00 1511.2629 1043.0436 34.6843 1.3286
3310.00 1511.4261 1043.0892 34.6845 1.3250
3320.00 1511.5894 1043.1348 34.6846 1.3213
3330.00 1511.7526 1043.1804 34.6848 1.3176
3340.00 1511.9158 1043.2260 34.6850 1.3140
3350.00 1512.0791 1043.2716 34.6852 1.3103
3360.00 1512.2423 1043.3172 34.6854 1.3066
3370.00 1512.4056 1043.3628 34.6855 1.3029
3380.00 1512.5688 1043.4084 34.6857 1.2993
3390.00 1512.7321 1043.4540 34.6859 1.2956
3400.00 1512.8953 1043.4996 34.6861 1.2919
3410.00 1513.0586 1043.5451 34.6862 1.2883
3420.00 1513.2218 1043.5907 34.6864 1.2846
3430.00 1513.3851 1043.6363 34.6866 1.2809
3440.00 1513.5483 1043.6819 34.6868 1.2773
3450.00 1513.7116 1043.7275 34.6870 1.2736
3460.00 1513.8748 1043.7731 34.6871 1.2699
3470.00 1514.0381 1043.8187 34.6873 1.2662
3480.00 1514.2013 1043.8643 34.6875 1.2626
3490.00 1514.3645 1043.9099 34.6877 1.2589
3500.00 1514.5278 1043.9555 34.6879 1.2552
3510.00 1514.6910 1044.0011 34.6880 1.2516
3520.00 1514.8543 1044.0467 34.6882 1.2479
3530.00 1515.0175 1044.0923 34.6884 1.2442
3540.00 1515.1808 1044.1378 34.6886 1.2406
3550.00 1515.3440 1044.1834 34.6887 1.2369
3560.00 1515.5073 1044.2290 34.6889 1.2332
3570.00 1515.6705 1044.2746 34.6891 1.2295
3580.00 1515.8338 1044.3202 34.6893 1.2259
3590.00 1515.9975 1044.3657 34.6895 1.2220
3600.00 1516.1612 1044.4111 34.6897 1.2182
3610.00 1516.3250 1044.4566 34.6899 1.2143
3620.00 1516.4887 1044.5020 34.6901 1.2105
3630.00 1516.6525 1044.5475 34.6903 1.2066
3640.00 1516.8163 1044.5929 34.6905 1.2028
3650.00 1516.9800 1044.6384 34.6907 1.1989
3660.00 1517.1438 1044.6838 34.6909 1.1951
3670.00 1517.3075 1044.7293 34.6911 1.1912
3680.00 1517.4713 1044.7747 34.6913 1.1874
3690.00 1517.6351 1044.8202 34.6915 1.1835
3700.00 1517.7988 1044.8656 34.6917 1.1797
3710.00 1517.9626 1044.9110 34.6919 1.1758
3720.00 1518.1264 1044.9565 34.6921 1.1720
3730.00 1518.2901 1045.0019 34.6923 1.1681
3740.00 1518.4539 1045.0474 34.6925 1.1643
3750.00 1518.6176 1045.0928 34.6927 1.1604
3760.00 1518.7814 1045.1383 34.6929 1.1566
3770.00 1518.9452 1045.1837 34.6932 1.1527
3780.00 1519.1089 1045.2292 34.6934 1.1489
3790.00 1519.2727 1045.2746 34.6936 1.1450
3800.00 1519.4364 1045.3201 34.6938 1.1411
3810.00 1519.6002 1045.3655 34.6940 1.1373
3820.00 1519.7640 1045.4110 34.6942 1.1334
3830.00 1519.9277 1045.4564 34.6944 1.1296
3840.00 1520.0915 1045.5019 34.6946 1.1257
3850.00 1520.2552 1045.5473 34.6948 1.1219
3860.00 1520.4190 1045.5927 34.6950 1.1180
3870.00 1520.5828 1045.6382 34.6952 1.1142
3880.00 1520.7465 1045.6836 34.6954 1.1103
3890.00 1520.9103 1045.7291 34.6956 1.1065
3900.00 1521.0741 1045.7745 34.6958 1.1026
3910.00 1521.2378 1045.8200 34.6960 1.0988
3920.00 1521.4106 1045.8649 34.6961 1.0967
3930.00 1521.5848 1045.9097 34.6962 1.0949
3940.00 1521.7589 1045.9545 34.6963 1.0931
3950.00 1521.9330 1045.9993 34.6965 1.0912
3960.00 1522.1072 1046.0441 34.6966 1.0894
3970.00 1522.2813 1046.0889 34.6967 1.0876
3980.00 1522.4554 1046.1337 34.6968 1.0858
3990.00 1522.6296 1046.1785 34.6969 1.0840
4000.00 1522.8037 1046.2233 34.6970 1.0822
4010.00 1522.9778 1046.2681 34.6971 1.0803
4020.00 1523.1520 1046.3129 34.6972 1.0785
4030.00 1523.3261 1046.3577 34.6973 1.0767
4040.00 1523.5002 1046.4025 34.6974 1.0749
4050.00 1523.6744 1046.4473 34.6975 1.0731
4060.00 1523.8485 1046.4921 34.6977 1.0712
4070.00 1524.0226 1046.5369 34.6978 1.0694
4080.00 1524.1968 1046.5817 34.6979 1.0676
4090.00 1524.3709 1046.6265 34.6980 1.0658
4100.00 1524.5450 1046.6713 34.6981 1.0640
4110.00 1524.7192 1046.7161 34.6982 1.0622
4120.00 1524.8933 1046.7609 34.6983 1.0603
4130.00 1525.0674 1046.8057 34.6984 1.0585
4140.00 1525.2416 1046.8505 34.6985 1.0567
4150.00 1525.4157 1046.8953 34.6986 1.0549
4160.00 1525.5898 1046.9401 34.6988 1.0531
4170.00 1525.7639 1046.9849 34.6989 1.0513
4180.00 1525.9381 1047.0297 34.6990 1.0494
4190.00 1526.1122 1047.0745 34.6991 1.0476
4200.00 1526.2863 1047.1193 34.6992 1.0458
4210.00 1526.4605 1047.1641 34.6993 1.0440
4220.00 1526.6346 1047.2089 34.6994 1.0422
4230.00 1526.8087 1047.2537 34.6995 1.0403
4240.00 1526.9829 1047.2985 34.6996 1.0385
4250.00 1527.1570 1047.3433 34.6997 1.0367
4260.00 1527.3311 1047.3881 34.6998 1.0349
4270.00 1527.3020 1047.4428 34.7027 0.9870
4280.00 1527.4855 1047.4869 34.7027 0.9870
4290.00 1527.6690 1047.5311 34.7027 0.9870
4300.00 1527.8525 1047.5752 34.7027 0.9870
4310.00 1528.0361 1047.6194 34.7027 0.9870
4320.00 1528.2196 1047.6635 34.7027 0.9870
4330.00 1528.4031 1047.7076 34.7027 0.9870
4340.00 1528.5867 1047.7518 34.7027 0.9870
4350.00 1528.7702 1047.7959 34.7027 0.9870
4360.00 1528.9537 1047.8400 34.7027 0.9870
4370.00 1529.1372 1047.8842 34.7027 0.9870
4380.00 1529.3208 1047.9283 34.7027 0.9870
4390.00 1529.5043 1047.9724 34.7027 0.9870
4400.00 1529.6878 1048.0166 34.7027 0.9870
4410.00 1529.8713 1048.0607 34.7027 0.9870
4420.00 1530.0549 1048.1048 34.7027 0.9870
4430.00 1530.2384 1048.1490 34.7027 0.9870
4440.00 1530.4219 1048.1931 34.7027 0.9870
4450.00 1530.6055 1048.2372 34.7027 0.9870
4460.00 1530.7890 1048.2814 34.7027 0.9870
4470.00 1530.9725 1048.3255 34.7027 0.9870
4480.00 1531.1560 1048.3696 34.7027 0.9870
4490.00 1531.3396 1048.4138 34.7027 0.9870
4500.00 1531.5231 1048.4579 34.7027 0.9870
4510.00 1531.7066 1048.5021 34.7027 0.9870
4520.00 1531.8901 1048.5462 34.7027 0.9870
4530.00 1532.0737 1048.5903 34.7027 0.9870
4540.00 1532.2572 1048.6345 34.7027 0.9870
4550.00 1532.4407 1048.6786 34.7027 0.9870
4560.00 1532.6242 1048.7227 34.7027 0.9870
4570.00 1532.8078 1048.7669 34.7027 0.9870
4580.00 1532.9913 1048.8110 34.7027 0.9870
4590.00 1533.1748 1048.8551 34.7027 0.9870
4600.00 1533.3584 1048.8993 34.7027 0.9870
4610.00 1533.5419 1048.9434 34.7027 0.9870
4620.00 1533.7254 1048.9875 34.7027 0.9870
4630.00 1533.9089 1049.0317 34.7027 0.9870
4640.00 1534.0925 1049.0758 34.7027 0.9870
4650.00 nan nan nan nan
4660.00 nan nan nan nan
4670.00 nan nan nan nan
4680.00 nan nan nan nan
4690.00 nan nan nan nan
4700.00 nan nan nan nan
4710.00 nan nan nan nan
4720.00 nan nan nan nan
4730.00 nan nan nan nan
4740.00 nan nan nan nan
4750.00 nan nan nan nan
4760.00 nan nan nan nan
4770.00 nan nan nan nan
4780.00 nan nan nan nan
4790.00 nan nan nan nan
4800.00 nan nan nan nan
4810.00 nan nan nan nan
4820.00 nan nan nan nan
4830.00 nan nan nan nan
4840.00 nan nan nan nan
4850.00 nan nan nan nan
4860.00 nan nan nan nan
4870.00 nan nan nan nan
4880.00 nan nan nan nan
4890.00 nan nan nan nan
4900.00 nan nan nan nan
4910.00 nan nan nan nan
4920.00 nan nan nan nan
4930.00 nan nan nan nan
4940.00 nan nan nan nan
4950.00 nan nan nan nan
4960.00 nan nan nan nan
4970.00 nan nan nan nan
4980.00 nan nan nan nan
4990.00 nan nan nan nan
5000.00 nan nan nan nan
5010.00 nan nan nan nan
5020.00 nan nan nan nan
5030.00 nan nan nan nan
5040.00 nan nan nan nan
5050.00 nan nan nan nan
5060.00 nan nan nan nan
5070.00 nan nan nan nan
5080.00 nan nan nan nan
5090.00 nan nan nan nan
5100.00 nan nan nan nan
5110.00 nan nan nan nan
5120.00 nan nan nan nan
5130.00 nan nan nan nan
5140.00 nan nan nan nan
5150.00 nan nan nan nan
5160.00 nan nan nan nan
5170.00 nan nan nan nan
5180.00 nan nan nan nan
5190.00 nan nan nan nan
5200.00 nan nan nan nan
5210.00 nan nan nan nan
5220.00 nan nan nan nan
5230.00 nan nan nan nan
5240.00 nan nan nan nan
5250.00 nan nan nan nan
5260.00 nan nan nan nan
5270.00 nan nan nan nan
5280.00 nan nan nan nan
5290.00 nan nan nan nan
5300.00 nan nan nan nan
5310.00 nan nan nan nan
5320.00 nan nan nan nan
5330.00 nan nan nan nan
5340.00 nan nan nan nan
5350.00 nan nan nan nan
5360.00 nan nan nan nan
5370.00 nan nan nan nan
5380.00 nan nan nan nan
5390.00 nan nan nan nan
5400.00 nan nan nan nan
5410.00 nan nan nan nan
5420.00 nan nan nan nan
5430.00 nan nan nan nan
5440.00 nan nan nan nan
5450.00 nan nan nan nan
5460.00 nan nan nan nan
5470.00 nan nan nan nan
5480.00 nan nan nan nan
5490.00 nan nan nan nan
5500.00 nan nan nan nan
5510.00 nan nan nan nan
5520.00 nan nan nan nan
5530.00 nan nan nan nan
5540.00 nan nan nan nan
5550.00 nan nan nan nan
5560.00 nan nan nan nan
5570.00 nan nan nan nan
5580.00 nan nan nan nan
5590.00 nan nan nan nan
5600.00 nan nan nan nan
5610.00 nan nan nan nan
5620.00 nan nan nan nan
5630.00 nan nan nan nan
5640.00 nan nan nan nan
5650.00 nan nan nan nan
5660.00 nan nan nan nan
5670.00 nan nan nan nan
5680.00 nan nan nan nan
5690.00 nan nan nan nan
5700.00 nan nan nan nan
5710.00 nan nan nan nan
5720.00 nan nan nan nan
5730.00 nan nan nan nan
5740.00 nan nan nan nan
5750.00 nan nan nan nan
5760.00 nan nan nan nan
5770.00 nan nan nan nan
5780.00 nan nan nan nan
5790.00 nan nan nan nan
5800.00 nan nan nan nan
5810.00 nan nan nan nan
5820.00 nan nan nan nan
5830.00 nan nan nan nan
5840.00 nan nan nan nan
5850.00 nan nan nan nan
5860.00 nan nan nan nan
5870.00 nan nan nan nan
5880.00 nan nan nan nan
5890.00 nan nan nan nan
5900.00 nan nan nan nan
5910.00 nan nan nan nan
5920.00 nan nan nan nan
5930.00 nan nan nan nan
5940.00 nan nan nan nan
5950.00 nan nan nan nan
5960.00 nan nan nan nan
5970.00 nan nan nan nan
5980.00 nan nan nan nan
5990.00 nan nan nan nan
6000.00 nan nan nan nan
6010.00 nan nan nan nan
6020.00 nan nan nan nan
6030.00 nan nan nan nan
6040.00 nan nan nan nan
6050.00 nan nan nan nan
6060.00 nan nan nan nan
6070.00 nan nan nan nan
6080.00 nan nan nan nan
6090.00 nan nan nan nan
6100.00 nan nan nan nan
6110.00 nan nan nan nan
6120.00 nan nan nan nan
6130.00 nan nan nan nan
6140.00 nan nan nan nan
6150.00 nan nan nan nan
6160.00 nan nan nan nan
6170.00 nan nan nan nan
6180.00 nan nan nan nan
6190.00 nan nan nan nan
6200.00 nan nan nan nan
6210.00 nan nan nan nan
6220.00 nan nan nan nan
6230.00 nan nan nan nan
6240.00 nan nan nan nan
6250.00 nan nan nan nan
6260.00 nan nan nan nan
6270.00 nan nan nan nan
6280.00 nan nan nan nan
6290.00 nan nan nan nan
6300.00 nan nan nan nan
6310.00 nan nan nan nan
6320.00 nan nan nan nan
6330.00 nan nan nan nan
6340.00 nan nan nan nan
6350.00 nan nan nan nan
6360.00 nan nan nan nan
6370.00 nan nan nan nan
6380.00 nan nan nan nan
6390.00 nan nan nan nan
6400.00 nan nan nan nan
6410.00 nan nan nan nan
6420.00 nan nan nan nan
6430.00 nan nan nan nan
6440.00 nan nan nan nan
6450.00 nan nan nan nan
6460.00 nan nan nan nan
6470.00 nan nan nan nan
6480.00 nan nan nan nan
6490.00 nan nan nan nan
6500.00 nan nan nan nan
6510.00 nan nan nan nan
6520.00 nan nan nan nan
6530.00 nan nan nan nan
6540.00 nan nan nan nan
6550.00 nan nan nan nan
6560.00 nan nan nan nan
6570.00 nan nan nan nan
6580.00 nan nan nan nan
6590.00 nan nan nan nan
6600.00 nan nan nan nan
6610.00 nan nan nan nan
6620.00 nan nan nan nan
6630.00 nan nan nan nan
6640.00 nan nan nan nan
6650.00 nan nan nan nan
6660.00 nan nan nan nan
6670.00 nan nan nan nan
6680.00 nan nan nan nan
6690.00 nan nan nan nan
6700.00 nan nan nan nan
6710.00 nan nan nan nan
6720.00 nan nan nan nan
6730.00 nan nan nan nan
6740.00 nan nan nan nan
6750.00 nan nan nan nan
6760.00 nan nan nan nan
6770.00 nan nan nan nan
6780.00 nan nan nan nan
6790.00 nan nan nan nan
6800.00 nan nan nan nan
6810.00 nan nan nan nan
6820.00 nan nan nan nan
6830.00 nan nan nan nan
6840.00 nan nan nan nan
6850.00 nan nan nan nan
6860.00 nan nan nan nan
6870.00 nan nan nan nan
6880.00 nan nan nan nan
6890.00 nan nan nan nan
6900.00 nan nan nan nan
6910.00 nan nan nan nan
6920.00 nan nan nan nan
6930.00 nan nan nan nan
6940.00 nan nan nan nan
6950.00 nan nan nan nan
6960.00 nan nan nan nan
6970.00 nan nan nan nan
6980.00 nan nan nan nan
6990.00 nan nan nan nan
7000.00 nan nan nan nan
7010.00 nan nan nan nan
7020.00 nan nan nan nan
7030.00 nan nan nan nan
7040.00 nan nan nan nan
7050.00 nan nan nan nan
7060.00 nan nan nan nan
7070.00 nan nan nan nan
7080.00 nan nan nan nan
7090.00 nan nan nan nan
7100.00 nan nan nan nan
7110.00 nan nan nan nan
7120.00 nan nan nan nan
7130.00 nan nan nan nan
7140.00 nan nan nan nan
7150.00 nan nan nan nan
7160.00 nan nan nan nan
7170.00 nan nan nan nan
7180.00 nan nan nan nan
7190.00 nan nan nan nan
7200.00 nan nan nan nan
7210.00 nan nan nan nan
7220.00 nan nan nan nan
7230.00 nan nan nan nan
7240.00 nan nan nan nan
7250.00 nan nan nan nan
7260.00 nan nan nan nan
7270.00 nan nan nan nan
7280.00 nan nan nan nan
7290.00 nan nan nan nan
7300.00 nan nan nan nan
7310.00 nan nan nan nan
7320.00 nan nan nan nan
7330.00 nan nan nan nan
7340.00 nan nan nan nan
7350.00 nan nan nan nan
7360.00 nan nan nan nan
7370.00 nan nan nan nan
7380.00 nan nan nan nan
7390.00 nan nan nan nan
7400.00 nan nan nan nan
7410.00 nan nan nan nan
7420.00 nan nan nan nan
7430.00 nan nan nan nan
7440.00 nan nan nan nan
7450.00 nan nan nan nan
7460.00 nan nan nan nan
7470.00 nan nan nan nan
7480.00 nan nan nan nan
7490.00 nan nan nan nan
7500.00 nan nan nan nan
7510.00 nan nan nan nan
7520.00 nan nan nan nan
7530.00 nan nan nan nan
7540.00 nan nan nan nan
7550.00 nan nan nan nan
7560.00 nan nan nan nan
7570.00 nan nan nan nan
7580.00 nan nan nan nan
7590.00 nan nan nan nan
7600.00 nan nan nan nan
7610.00 nan nan nan nan
7620.00 nan nan nan nan
7630.00 nan nan nan nan
7640.00 nan nan nan nan
7650.00 nan nan nan nan
7660.00 nan nan nan nan
7670.00 nan nan nan nan
7680.00 nan nan nan nan
7690.00 nan nan nan nan
7700.00 nan nan nan nan
7710.00 nan nan nan nan
7720.00 nan nan nan nan
7730.00 nan nan nan nan
7740.00 nan nan nan nan
7750.00 nan nan nan nan
7760.00 nan nan nan nan
7770.00 nan nan nan nan
7780.00 nan nan nan nan
7790.00 nan nan nan nan
7800.00 nan nan nan nan
7810.00 nan nan nan nan
7820.00 nan nan nan nan
7830.00 nan nan nan nan
7840.00 nan nan nan nan
7850.00 nan nan nan nan
7860.00 nan nan nan nan
7870.00 nan nan nan nan
7880.00 nan nan nan nan
7890.00 nan nan nan nan
7900.00 nan nan nan nan
7910.00 nan nan nan nan
7920.00 nan nan nan nan
7930.00 nan nan nan nan
7940.00 nan nan nan nan
7950.00 nan nan nan nan
7960.00 nan nan nan nan
7970.00 nan nan nan nan
7980.00 nan nan nan nan
7990.00 nan nan nan nan
